timestamps,eeg_1,eeg_2,eeg_3,eeg_4
1554948008.82086,,,,
1554948008.85601,,,,
1554948008.89116,,,,
1554948008.92631,,,,
1554948008.94909,,,,
1554948008.95341,,,,
1554948008.95366,,,,
1554948008.96145,,,,
1554948008.98687,775.2380981,32.63736343,795.7875366,841.3186646
1554948008.99077,780.8791504,28.60805893,963.0036621,975.0915527
1554948008.99467,766.3735962,25.78754616,878.7911987,881.2088013
1554948008.99660,,,,
1554948008.99856,772.0146484,24.98168564,684.1758423,734.9450684
1554948009.00246,761.9414063,25.38461494,694.6520386,799.8168335
1554948009.00636,762.3442993,25.78754616,868.7179565,967.8388062
1554948009.01026,770.8058472,27.80219841,894.1025391,936.4102783
1554948009.01416,758.3150024,26.19047546,708.7545776,765.567749
1554948009.01806,765.164856,24.98168564,670.4761963,777.2527466
1554948009.02196,774.432251,23.77289391,765.9707031,945.6776733
1554948009.02237,,,,
1554948009.02586,769.1941528,39.89011002,895.7142944,970.6593628
1554948009.02922,,,,
1554948009.02975,756.300354,38.68132019,857.4359131,811.098877
1554948009.03175,,,,
1554948009.03365,754.2857056,20.95238113,712.3809814,751.868103
1554948009.03755,771.6116943,22.96703339,837.6923218,905.7875366
1554948009.04145,759.9267578,130.5494537,984.7619019,1002.893799
1554948009.04177,,,,
1554948009.04535,741.3919678,104.7619019,862.2710571,873.5531006
1554948009.04757,,,,
1554948009.04757,,,,
1554948009.04775,,,,
1554948009.04778,,,,
1554948009.04780,,,,
1554948009.04782,,,,
1554948009.04783,,,,
1554948009.04785,,,,
1554948009.04786,,,,
1554948009.04788,,,,
1554948009.04790,,,,
1554948009.04791,,,,
1554948009.04793,,,,
1554948009.04793,,,,
1554948009.04794,,,,
1554948009.04795,,,,
1554948009.04796,,,,
1554948009.04798,,,,
1554948009.04859,,,,
1554948009.04925,762.3442993,18.13186836,608.4249268,765.164856
1554948009.05315,756.7033081,5.238095284,632.600708,871.5384521
1554948009.05705,742.1978149,160.7692261,952.5274658,1009.743591
1554948009.06094,756.7033081,229.267395,959.7802124,944.4688721
1554948009.06116,,,,
1554948009.06484,776.4468994,39.08424759,684.9816895,786.5201416
1554948009.06690,,,,
1554948009.06797,,,,
1554948009.06874,786.5201416,7.252747059,669.6703491,820.366272
1554948009.07264,786.1171875,106.7765579,857.032959,983.5531006
1554948009.07654,788.53479,220,919.0842285,963.8095093
1554948009.08044,806.2637329,96.30036926,626.9597168,784.1025391
1554948009.08055,,,,
1554948009.08434,799.8168335,0,485.5311279,751.0622559
1554948009.08734,,,,
1554948009.08824,772.8204956,266.3370056,911.0256348,902.5640869
1554948009.09214,794.9816895,533.0769043,1104.029297,963.0036621
1554948009.09603,801.8314819,325.1648254,840.5128174,808.2783813
1554948009.09993,772.0146484,22.56410217,613.6630249,712.7838745
1554948009.09994,,,,
1554948009.10204,,,,
1554948009.10383,779.6703491,227.2527466,822.7838745,839.3040161
1554948009.10671,,,,
1554948009.10773,784.5054932,610.4395752,1076.227051,954.1392212
1554948009.11163,790.5494385,310.2564087,786.1171875,827.6190186
1554948009.11553,792.1611938,26.59340668,627.765564,676.5201416
1554948009.11934,,,,
1554948009.11943,788.9377441,250.6227112,858.2417603,776.4468994
1554948009.12333,789.7435913,532.6740112,1056.483521,941.2454224
1554948009.12608,,,,
1554948009.12722,782.0878906,547.9853516,997.6557007,882.4176025
1554948009.13112,795.3846436,159.5604401,672.8937988,717.2161255
1554948009.13502,797.399292,78.97435761,689.4139404,745.0183105
1554948009.13719,,,,
1554948009.13873,,,,
1554948009.13892,796.1904907,301.3919373,891.6849976,921.9047852
1554948009.14282,790.1465454,261.0989075,832.8571167,922.3076782
1554948009.14545,,,,
1554948009.14672,790.9523926,102.7472534,652.3442993,750.6593628
1554948009.14893,,,,
1554948009.14893,,,,
1554948009.14910,,,,
1554948009.14914,,,,
1554948009.14915,,,,
1554948009.14917,,,,
1554948009.14919,,,,
1554948009.14920,,,,
1554948009.14922,,,,
1554948009.14923,,,,
1554948009.14925,,,,
1554948009.14927,,,,
1554948009.14928,,,,
1554948009.14929,,,,
1554948009.14929,,,,
1554948009.14930,,,,
1554948009.14931,,,,
1554948009.14933,,,,
1554948009.15062,788.53479,0,562.0878906,725.2747192
1554948009.15452,759.9267578,131.3553162,805.4578857,890.4761963
1554948009.15812,,,,
1554948009.15841,763.5531006,296.1538391,976.7033081,961.7948608
1554948009.16231,780.0732422,134.9816895,787.3259888,819.9633789
1554948009.16482,,,,
1554948009.16621,781.6849976,12.49084282,640.2564087,720.8424683
1554948009.17011,786.5201416,22.56410217,668.0585938,843.7362671
1554948009.17234,,,,
1554948009.17401,782.8937988,65.67765808,842.9304199,964.2124634
1554948009.17751,,,,
1554948009.17791,772.8204956,74.9450531,876.3735962,860.2564087
1554948009.18181,776.8497925,20.14652061,630.9890137,727.2893677
1554948009.18420,,,,
1554948009.18571,792.967041,25.38461494,731.3186646,807.0695801
1554948009.18961,788.9377441,26.19047546,925.934082,975.0915527
1554948009.19350,772.4176025,24.57875443,826.4102783,929.1575317
1554948009.19691,,,,
1554948009.19740,786.1171875,29.41391945,595.934082,753.0769043
1554948009.20130,802.234436,13.6996336,493.1867981,770.4029541
1554948009.20357,,,,
1554948009.20520,794.9816895,73.33333588,770.4029541,927.9487305
1554948009.20749,,,,
1554948009.20910,795.3846436,99.12088013,976.300354,948.901123
1554948009.21300,811.5018311,26.99633789,724.065918,797.399292
1554948009.21630,,,,
1554948009.21690,796.9963379,18.13186836,618.901123,741.7948608
1554948009.22080,796.5933838,42.71062088,816.7399292,897.3259888
1554948009.22294,,,,
1554948009.22469,796.1904907,144.6520081,1001.684998,981.5384521
1554948009.22859,788.131897,99.52381134,794.9816895,843.7362671
1554948009.23249,780.8791504,12.89377308,596.3369751,730.9157715
1554948009.23569,,,,
1554948009.23639,777.2527466,35.0549469,784.5054932,844.9450684
1554948009.24029,784.5054932,101.5384598,923.5164795,987.1795044
1554948009.24231,,,,
1554948009.24263,,,,
1554948009.24419,778.0585938,111.6117249,844.5421143,892.8937988
1554948009.24809,783.2966919,26.59340668,629.3773193,743.4066162
1554948009.25028,,,,
1554948009.25028,,,,
1554948009.25045,,,,
1554948009.25049,,,,
1554948009.25050,,,,
1554948009.25052,,,,
1554948009.25054,,,,
1554948009.25056,,,,
1554948009.25057,,,,
1554948009.25058,,,,
1554948009.25060,,,,
1554948009.25062,,,,
1554948009.25063,,,,
1554948009.25064,,,,
1554948009.25065,,,,
1554948009.25065,,,,
1554948009.25066,,,,
1554948009.25068,,,,
1554948009.25199,782.0878906,18.13186836,693.0402832,809.0842285
1554948009.25509,,,,
1554948009.25588,784.5054932,249.4139252,999.6703491,975.8974609
1554948009.25978,790.9523926,247.3992615,891.2820435,955.3479614
1554948009.26168,,,,
1554948009.26368,786.5201416,13.6996336,547.9853516,764.7619019
1554948009.26758,771.6116943,18.53479767,677.3259888,759.5238037
1554948009.27148,765.567749,227.2527466,1010.952393,966.6300659
1554948009.27448,,,,
1554948009.27538,774.0292969,435.1648254,1081.46521,1009.743591
1554948009.27778,,,,
1554948009.27928,769.5970459,222.4175873,845.3479614,832.8571167
1554948009.28105,,,,
1554948009.28318,767.9853516,12.08791256,662.8204956,757.9121094
1554948009.28708,777.2527466,34.24908447,753.0769043,906.1904907
1554948009.29097,772.8204956,47.54578781,814.7252808,1004.908447
1554948009.29387,,,,
1554948009.29487,763.9560547,26.19047546,750.2564087,867.5091553
1554948009.29877,770,26.19047546,691.8314819,752.2710571
1554948009.30043,,,,
1554948009.30267,764.7619019,19.3406601,767.1795044,863.0769043
1554948009.30657,757.1062012,49.15750885,965.8241577,1003.296692
1554948009.31047,762.3442993,66.88644409,904.5787354,930.7692261
1554948009.31293,,,,
1554948009.31326,,,,
1554948009.31437,776.0439453,23.77289391,683.3699341,770.4029541
1554948009.31827,790.9523926,23.77289391,659.5970459,819.1575317
1554948009.31980,,,,
1554948009.32216,799.0109863,26.99633789,832.8571167,979.5238037
1554948009.32606,791.7582397,27.80219841,966.6300659,952.5274658
1554948009.32996,784.9084473,25.78754616,736.5567627,791.3552856
1554948009.33266,,,,
1554948009.33386,780.4761963,24.98168564,593.9194336,774.0292969
1554948009.33776,778.4615479,25.38461494,869.1208496,927.1428833
1554948009.33917,,,,
1554948009.34166,782.4908447,24.98168564,998.8644409,978.3150024
1554948009.34556,782.4908447,25.38461494,775.6410522,825.2014771
1554948009.34808,,,,
1554948009.34946,796.1904907,25.38461494,512.9304199,744.2124634
1554948009.35163,,,,
1554948009.35163,,,,
1554948009.35181,,,,
1554948009.35184,,,,
1554948009.35186,,,,
1554948009.35187,,,,
1554948009.35189,,,,
1554948009.35191,,,,
1554948009.35192,,,,
1554948009.35194,,,,
1554948009.35196,,,,
1554948009.35197,,,,
1554948009.35198,,,,
1554948009.35199,,,,
1554948009.35200,,,,
1554948009.35201,,,,
1554948009.35201,,,,
1554948009.35204,,,,
1554948009.35205,,,,
1554948009.35335,799.4139404,25.38461494,654.7619019,876.7765503
1554948009.35725,786.1171875,25.38461494,1005.31134,986.7765503
1554948009.35854,,,,
1554948009.36115,792.1611938,25.38461494,883.6264038,877.5823975
1554948009.36505,791.7582397,25.38461494,580.6226807,745.0183105
1554948009.36895,787.7289429,25.38461494,703.5164795,838.0952148
1554948009.37144,,,,
1554948009.37285,786.1171875,25.38461494,970.6593628,999.6703491
1554948009.37675,770,24.98168564,892.0878906,940.0366211
1554948009.37791,,,,
1554948009.38065,765.164856,26.19047546,479.084259,770.4029541
1554948009.38322,,,,
1554948009.38455,767.5823975,22.96703339,419.8534851,784.5054932
1554948009.38844,764.3589478,31.83150101,889.267395,963.0036621
1554948009.39083,,,,
1554948009.39234,782.4908447,38.27838898,944.8717651,986.3735962
1554948009.39624,787.3259888,24.98168564,663.6264038,820.366272
1554948009.39728,,,,
1554948009.40014,771.6116943,24.98168564,559.267395,783.2966919
1554948009.40404,765.567749,25.78754616,787.7289429,935.6043701
1554948009.40794,778.4615479,25.38461494,905.3846436,1001.684998
1554948009.41023,,,,
1554948009.41184,780.0732422,25.38461494,680.9523926,850.9890137
1554948009.41574,790.9523926,25.38461494,556.8497925,749.0476074
1554948009.41666,,,,
1554948009.41837,,,,
1554948009.41963,804.6520386,25.38461494,726.0805664,879.5970459
1554948009.42353,788.131897,25.38461494,919.0842285,1013.772888
1554948009.42743,783.699646,25.38461494,744.6153564,914.6520386
1554948009.42962,,,,
1554948009.43133,802.234436,25.38461494,483.9194031,769.1941528
1554948009.43523,809.4871826,25.38461494,542.3442993,845.7509155
1554948009.43603,,,,
1554948009.43913,812.3076782,25.38461494,630.9890137,1005.31134
1554948009.44303,822.7838745,25.38461494,468.6080627,956.5567627
1554948009.44693,821.5750732,25.38461494,361.8315125,778.8644409
1554948009.44901,,,,
1554948009.45083,815.5311279,25.38461494,460.5494385,797.399292
1554948009.45299,,,,
1554948009.45299,,,,
1554948009.45316,,,,
1554948009.45319,,,,
1554948009.45321,,,,
1554948009.45323,,,,
1554948009.45325,,,,
1554948009.45326,,,,
1554948009.45327,,,,
1554948009.45329,,,,
1554948009.45331,,,,
1554948009.45332,,,,
1554948009.45334,,,,
1554948009.45334,,,,
1554948009.45335,,,,
1554948009.45336,,,,
1554948009.45337,,,,
1554948009.45339,,,,
1554948009.45352,,,,
1554948009.45472,809.4871826,25.38461494,728.901123,969.8534546
1554948009.45540,,,,
1554948009.45862,826.4102783,25.38461494,871.9414063,993.6264038
1554948009.46252,834.8717651,25.38461494,672.0878906,833.2600708
1554948009.46642,821.5750732,25.38461494,559.6703491,771.2088013
1554948009.46840,,,,
1554948009.47032,820.7692261,25.38461494,697.8754883,914.6520386
1554948009.47422,811.9047852,25.38461494,806.2637329,997.2527466
1554948009.47477,,,,
1554948009.47812,795.7875366,24.98168564,714.3956299,856.2271118
1554948009.48202,794.5787354,25.38461494,544.7619019,740.9890137
1554948009.48591,790.9523926,25.38461494,698.2783813,851.3919678
1554948009.48780,,,,
1554948009.48867,,,,
1554948009.48981,794.5787354,25.38461494,936.0073242,990
1554948009.49371,799.4139404,25.38461494,850.5860596,902.5640869
1554948009.49414,,,,
1554948009.49761,795.3846436,25.38461494,611.2454224,749.4505615
1554948009.50151,801.8314819,25.38461494,512.1245117,813.5164795
1554948009.50541,799.0109863,25.38461494,833.6630249,977.1062012
1554948009.50719,,,,
1554948009.50931,796.1904907,25.38461494,1010.952393,949.3040161
1554948009.51321,797.399292,25.38461494,742.600708,774.835144
1554948009.51351,,,,
1554948009.51710,783.2966919,25.38461494,678.53479,764.3589478
1554948009.52100,782.4908447,24.98168564,848.5714111,938.0219727
1554948009.52381,,,,
1554948009.52490,780.4761963,24.98168564,1018.205139,981.1355591
1554948009.52658,,,,
1554948009.52880,782.4908447,25.38461494,800.2197876,824.3956299
1554948009.53270,799.4139404,25.38461494,565.3113403,740.9890137
1554948009.53289,,,,
1554948009.53660,801.4285889,25.38461494,841.3186646,886.0439453
1554948009.54050,812.3076782,25.38461494,1069.780273,1002.490845
1554948009.54440,814.3223267,25.38461494,958.9743652,871.9414063
1554948009.54598,,,,
1554948009.54830,800.6226807,25.38461494,725.2747192,750.6593628
1554948009.55219,792.1611938,25.38461494,796.9963379,855.8241577
1554948009.55226,,,,
1554948009.55434,,,,
1554948009.55434,,,,
1554948009.55451,,,,
1554948009.55455,,,,
1554948009.55456,,,,
1554948009.55458,,,,
1554948009.55460,,,,
1554948009.55462,,,,
1554948009.55463,,,,
1554948009.55464,,,,
1554948009.55466,,,,
1554948009.55468,,,,
1554948009.55469,,,,
1554948009.55470,,,,
1554948009.55471,,,,
1554948009.55471,,,,
1554948009.55472,,,,
1554948009.55474,,,,
1554948009.55609,793.3699341,25.38461494,1021.831482,1004.102539
1554948009.55896,,,,
1554948009.55999,809.8901367,25.38461494,874.3589478,925.934082
1554948009.56389,805.4578857,25.38461494,644.6886597,759.9267578
1554948009.56537,,,,
1554948009.56779,809.0842285,24.98168564,672.8937988,812.7106323
1554948009.57163,,,,
1554948009.57169,821.5750732,25.78754616,934.7985229,989.1941528
1554948009.57559,802.6373901,26.99633789,1016.996338,975.4945068
1554948009.57949,803.8461304,25.38461494,724.4688721,804.6520386
1554948009.58338,822.3809814,24.98168564,651.1355591,779.6703491
1554948009.58476,,,,
1554948009.58728,820.366272,25.38461494,873.9560547,946.8864746
1554948009.59100,,,,
1554948009.59118,799.8168335,25.38461494,892.0878906,1008.131897
1554948009.59411,,,,
1554948009.59508,780.4761963,25.38461494,718.0219727,855.8241577
1554948009.59898,781.6849976,25.38461494,642.6740112,774.0292969
1554948009.60288,779.6703491,25.38461494,838.4981689,911.4285889
1554948009.60415,,,,
1554948009.60678,784.1025391,25.38461494,1045.60437,1028.681274
1554948009.61037,,,,
1554948009.61068,790.1465454,25.38461494,886.0439453,914.6520386
1554948009.61457,797.8021851,25.38461494,573.3699341,776.8497925
1554948009.61847,796.5933838,25.38461494,611.6483765,865.4945068
1554948009.62237,797.8021851,25.38461494,758.3150024,1015.787537
1554948009.62355,,,,
1554948009.62627,794.9816895,25.38461494,814.3223267,942.0512695
1554948009.62926,,,,
1554948009.62974,,,,
1554948009.63017,791.3552856,25.38461494,654.3589478,772.8204956
1554948009.63407,772.4176025,25.38461494,634.2124634,788.9377441
1554948009.63797,776.4468994,25.38461494,904.5787354,958.9743652
1554948009.64187,802.6373901,25.38461494,948.4981689,971.46521
1554948009.64294,,,,
1554948009.64577,792.967041,25.38461494,716.4102783,792.967041
1554948009.64912,,,,
1554948009.64966,794.5787354,25.38461494,573.7728882,745.4212646
1554948009.65356,808.2783813,25.38461494,756.7033081,908.6080322
1554948009.65569,,,,
1554948009.65569,,,,
1554948009.65587,,,,
1554948009.65590,,,,
1554948009.65592,,,,
1554948009.65593,,,,
1554948009.65595,,,,
1554948009.65597,,,,
1554948009.65598,,,,
1554948009.65600,,,,
1554948009.65602,,,,
1554948009.65603,,,,
1554948009.65604,,,,
1554948009.65605,,,,
1554948009.65606,,,,
1554948009.65607,,,,
1554948009.65607,,,,
1554948009.65610,,,,
1554948009.65746,810.2930298,25.38461494,929.9633789,988.7911987
1554948009.66136,815.1282349,25.38461494,716.4102783,838.901123
1554948009.66233,,,,
1554948009.66441,,,,
1554948009.66526,802.234436,25.38461494,527.032959,725.2747192
1554948009.66849,,,,
1554948009.66916,775.6410522,25.38461494,763.5531006,848.5714111
1554948009.67306,789.7435913,25.38461494,985.9707031,982.7472534
1554948009.67696,793.7728882,25.38461494,880,887.6557007
1554948009.68085,792.5640869,25.38461494,519.7802124,745.4212646
1554948009.68172,,,,
1554948009.68475,796.1904907,25.38461494,595.934082,807.4725342
1554948009.68786,,,,
1554948009.68865,784.1025391,25.38461494,1032.710571,971.868103
1554948009.69255,799.4139404,25.38461494,986.7765503,936.0073242
1554948009.69645,796.5933838,25.38461494,697.4725342,760.3296509
1554948009.69955,,,,
1554948009.70035,789.7435913,25.38461494,650.3296509,769.5970459
1554948009.70112,,,,
1554948009.70425,792.967041,25.38461494,914.6520386,949.3040161
1554948009.70723,,,,
1554948009.70815,799.0109863,25.38461494,916.666687,980.3296509
1554948009.71204,787.7289429,25.38461494,610.8424683,796.5933838
1554948009.71594,780.0732422,25.38461494,669.267395,735.3479614
1554948009.71984,801.8314819,25.38461494,970.6593628,906.5933838
1554948009.72051,,,,
1554948009.72374,798.2051392,25.38461494,1131.428589,1002.893799
1554948009.72660,,,,
1554948009.72764,782.8937988,25.38461494,946.4835205,863.8828125
1554948009.73154,790.1465454,25.38461494,727.6923218,748.6447144
1554948009.73470,,,,
1554948009.73544,788.53479,25.38461494,871.1355591,861.868103
1554948009.73934,784.9084473,25.38461494,985.9707031,1000.87915
1554948009.73990,,,,
1554948009.74324,788.9377441,25.38461494,865.8974609,909.8168335
1554948009.74597,,,,
1554948009.74713,785.7142944,25.38461494,736.9597168,759.5238037
1554948009.75103,783.2966919,25.38461494,748.2417603,829.2307739
1554948009.75493,781.2820435,25.38461494,909.4139404,996.4468994
1554948009.75705,,,,
1554948009.75705,,,,
1554948009.75722,,,,
1554948009.75725,,,,
1554948009.75727,,,,
1554948009.75729,,,,
1554948009.75730,,,,
1554948009.75732,,,,
1554948009.75733,,,,
1554948009.75735,,,,
1554948009.75737,,,,
1554948009.75738,,,,
1554948009.75740,,,,
1554948009.75740,,,,
1554948009.75741,,,,
1554948009.75742,,,,
1554948009.75743,,,,
1554948009.75745,,,,
1554948009.75883,772.8204956,25.38461494,940.0366211,969.0476074
1554948009.75930,,,,
1554948009.76273,772.8204956,25.38461494,728.901123,805.4578857
1554948009.76534,,,,
1554948009.76663,774.432251,24.98168564,648.7179565,801.4285889
1554948009.76985,,,,
1554948009.77053,788.131897,25.38461494,748.6447144,963.4066162
1554948009.77443,795.7875366,25.38461494,893.699646,994.835144
1554948009.77832,794.9816895,25.38461494,844.9450684,839.7069702
1554948009.77869,,,,
1554948009.78222,809.0842285,25.38461494,656.7765503,775.2380981
1554948009.78472,,,,
1554948009.78612,794.9816895,25.38461494,821.1721802,910.6226807
1554948009.79002,797.399292,25.38461494,1019.816834,1009.743591
1554948009.79392,817.1428833,24.98168564,864.2857056,887.2527466
1554948009.79782,807.8754883,25.38461494,601.5750732,758.7179565
1554948009.79808,,,,
1554948009.80172,809.0842285,25.38461494,657.9853516,852.600708
1554948009.80409,,,,
1554948009.80500,,,,
1554948009.80562,809.0842285,25.38461494,977.9121094,994.835144
1554948009.80951,812.3076782,25.38461494,970.2564087,927.5457764
1554948009.81341,813.5164795,25.38461494,703.9194336,772.8204956
1554948009.81731,802.6373901,25.38461494,670.4761963,803.4432373
1554948009.81747,,,,
1554948009.82121,798.2051392,25.38461494,925.1282349,971.46521
1554948009.82346,,,,
1554948009.82511,796.9963379,24.98168564,1042.380981,968.2417603
1554948009.82901,797.8021851,26.59340668,680.9523926,801.4285889
1554948009.83291,805.0549316,23.77289391,491.1721497,765.567749
1554948009.83681,784.9084473,27.3992672,911.0256348,917.8754883
1554948009.83687,,,,
1554948009.84014,,,,
1554948009.84070,776.8497925,50.76922989,1135.86084,989.5970459
1554948009.84283,,,,
1554948009.84460,796.9963379,36.66666794,849.7802124,837.2893677
1554948009.84850,784.1025391,22.96703339,545.164856,737.765564
1554948009.85240,765.9707031,21.35531044,671.2820435,863.0769043
1554948009.85626,,,,
1554948009.85630,786.9230957,61.64834976,973.4798584,985.164856
1554948009.85840,,,,
1554948009.85840,,,,
1554948009.85857,,,,
1554948009.85861,,,,
1554948009.85862,,,,
1554948009.85864,,,,
1554948009.85866,,,,
1554948009.85867,,,,
1554948009.85869,,,,
1554948009.85870,,,,
1554948009.85872,,,,
1554948009.85874,,,,
1554948009.85875,,,,
1554948009.85876,,,,
1554948009.85876,,,,
1554948009.85877,,,,
1554948009.85878,,,,
1554948009.85880,,,,
1554948009.86020,799.8168335,56.00732422,774.432251,875.9707031
1554948009.86220,,,,
1554948009.86410,790.5494385,23.36996269,540.732605,722.0512695
1554948009.86800,786.9230957,11.68498135,745.0183105,806.666687
1554948009.87190,792.1611938,97.10622406,1014.175842,980.732605
1554948009.87529,,,,
1554948009.87565,,,,
1554948009.87579,792.5640869,124.102562,983.5531006,937.2161255
1554948009.87969,791.7582397,18.53479767,709.5604248,770.8058472
1554948009.88157,,,,
1554948009.88359,794.9816895,24.57875443,701.9047852,776.4468994
1554948009.88749,797.8021851,27.80219841,871.1355591,933.1868286
1554948009.89139,803.8461304,24.17582512,898.53479,943.2600708
1554948009.89504,,,,
1554948009.89529,798.2051392,30.21977997,711.1721802,772.0146484
1554948009.89919,789.3406372,15.71428585,599.1575317,726.4835205
1554948009.90095,,,,
1554948009.90309,778.0585938,52.38095093,884.835144,888.4615479
1554948009.90698,770.8058472,112.0146484,1055.27478,967.8388062
1554948009.91044,,,,
1554948009.91088,780.4761963,42.30769348,825.2014771,821.9780273
1554948009.91444,,,,
1554948009.91478,793.3699341,17.72893715,657.5823975,718.4249268
1554948009.91868,805.8607788,29.81685066,681.3552856,836.8864746
1554948009.92032,,,,
1554948009.92258,806.2637329,24.57875443,838.4981689,957.3626099
1554948009.92648,803.0402832,25.38461494,849.7802124,859.4505615
1554948009.93038,796.5933838,25.38461494,645.0915527,721.2454224
1554948009.93383,,,,
1554948009.93428,801.0256348,25.38461494,737.3626099,796.1904907
1554948009.93818,813.1135254,25.38461494,983.1502075,963.0036621
1554948009.93969,,,,
1554948009.94207,810.2930298,25.38461494,884.432251,915.4578857
1554948009.94559,,,,
1554948009.94597,811.5018311,25.38461494,617.2893677,737.765564
1554948009.94987,815.934082,25.38461494,464.1758118,745.8241577
1554948009.95322,,,,
1554948009.95377,797.8021851,25.38461494,674.5054932,904.1758423
1554948009.95767,788.131897,25.38461494,1015.384644,947.2893677
1554948009.95906,,,,
1554948009.95975,,,,
1554948009.95975,,,,
1554948009.95992,,,,
1554948009.95996,,,,
1554948009.95997,,,,
1554948009.95999,,,,
1554948009.96001,,,,
1554948009.96003,,,,
1554948009.96004,,,,
1554948009.96006,,,,
1554948009.96007,,,,
1554948009.96009,,,,
1554948009.96010,,,,
1554948009.96011,,,,
1554948009.96012,,,,
1554948009.96012,,,,
1554948009.96013,,,,
1554948009.96016,,,,
1554948009.96157,785.7142944,25.78754616,838.901123,801.0256348
1554948009.96547,785.3113403,24.98168564,629.3773193,726.8864746
1554948009.96937,791.7582397,24.98168564,839.3040161,881.2088013
1554948009.97261,,,,
1554948009.97326,782.8937988,31.4285717,1046.813232,980.732605
1554948009.97716,786.5201416,28.20512772,830.0366211,855.0183105
1554948009.97843,,,,
1554948009.98073,,,,
1554948009.98106,783.699646,24.17582512,593.9194336,726.0805664
1554948009.98496,776.0439453,25.78754616,776.8497925,832.8571167
1554948009.98886,784.9084473,24.98168564,968.6447144,983.5531006
1554948009.99201,,,,
1554948009.99276,780.0732422,24.98168564,902.5640869,888.0585938
1554948009.99666,775.2380981,28.60805893,707.1428833,733.7362671
1554948009.99780,,,,
1554948010.00056,791.7582397,16.52014732,718.4249268,787.3259888
1554948010.00445,796.1904907,58.42490768,957.3626099,950.5128174
1554948010.00835,804.6520386,78.16849518,875.164856,931.1721802
1554948010.01140,,,,
1554948010.01225,814.7252808,27.80219841,514.9450684,745.4212646
1554948010.01588,,,,
1554948010.01615,812.7106323,14.90842533,622.5274658,726.8864746
1554948010.01718,,,,
1554948010.02005,802.6373901,58.42490768,945.6776733,902.1611938
1554948010.02395,808.2783813,142.6373596,1047.216064,950.1098633
1554948010.02785,809.0842285,72.52747345,863.0769043,799.4139404
1554948010.03079,,,,
1554948010.03175,803.4432373,14.90842533,676.9230957,726.0805664
1554948010.03565,812.7106323,29.81685066,822.7838745,867.9121094
1554948010.03655,,,,
1554948010.03954,822.3809814,24.98168564,937.6190186,967.8388062
1554948010.04344,820.7692261,26.19047546,812.7106323,840.9157715
1554948010.04734,800.6226807,29.41391945,707.5457764,725.2747192
1554948010.05019,,,,
1554948010.05103,,,,
1554948010.05124,787.7289429,10.47619057,801.4285889,831.2454224
1554948010.05514,787.7289429,116.8498154,1052.05127,984.3589478
1554948010.05592,,,,
1554948010.05904,803.4432373,136.593399,994.432251,919.8901367
1554948010.06111,,,,
1554948010.06111,,,,
1554948010.06128,,,,
1554948010.06131,,,,
1554948010.06133,,,,
1554948010.06134,,,,
1554948010.06136,,,,
1554948010.06138,,,,
1554948010.06139,,,,
1554948010.06141,,,,
1554948010.06143,,,,
1554948010.06144,,,,
1554948010.06146,,,,
1554948010.06146,,,,
1554948010.06147,,,,
1554948010.06148,,,,
1554948010.06149,,,,
1554948010.06151,,,,
1554948010.06294,803.0402832,21.35531044,706.3369751,758.7179565
1554948010.06684,793.3699341,16.92307663,709.5604248,799.0109863
1554948010.06958,,,,
1554948010.07073,801.8314819,55.20146561,924.7252808,972.2710571
1554948010.07463,816.3369751,75.75091553,1003.296692,967.032959
1554948010.07529,,,,
1554948010.07853,813.1135254,33.44322205,817.9487305,799.0109863
1554948010.08243,794.1758423,13.29670334,668.4615479,773.6264038
1554948010.08618,,,,
1554948010.08633,802.6373901,55.60439682,887.6557007,933.5897217
1554948010.08897,,,,
1554948010.09023,803.0402832,241.3553162,1091.135498,997.2527466
1554948010.09413,790.1465454,171.6483459,913.4432373,852.600708
1554948010.09466,,,,
1554948010.09803,806.2637329,0,619.7069702,760.3296509
1554948010.10192,807.4725342,54.79853439,708.3516235,880.8058472
1554948010.10582,805.0549316,311.0622559,1080.659302,993.6264038
1554948010.10836,,,,
1554948010.10972,814.3223267,311.0622559,987.9853516,890.8791504
1554948010.11362,813.1135254,47.1428566,685.3846436,736.5567627
1554948010.11403,,,,
1554948010.11752,809.4871826,24.17582512,727.6923218,799.4139404
1554948010.12132,,,,
1554948010.12142,812.3076782,222.4175873,956.9597168,958.5714111
1554948010.12532,803.0402832,260.6959839,951.7216187,906.1904907
1554948010.12776,,,,
1554948010.12922,788.53479,56.81318665,586.2637329,733.7362671
1554948010.13312,790.9523926,0,519.7802124,739.3773193
1554948010.13341,,,,
1554948010.13701,800.6226807,116.8498154,929.1575317,909.4139404
1554948010.14091,809.0842285,269.5604248,1040.769287,942.4542236
1554948010.14481,811.5018311,130.5494537,798.6080322,775.2380981
1554948010.14715,,,,
1554948010.14871,819.1575317,0,661.6116943,716.4102783
1554948010.15261,817.5457764,99.92674255,867.1062012,869.5238037
1554948010.15278,,,,
1554948010.15647,,,,
1554948010.15651,820.7692261,266.7399292,1010.952393,957.3626099
1554948010.16041,831.2454224,113.2234421,778.4615479,818.7545776
1554948010.16246,,,,
1554948010.16246,,,,
1554948010.16263,,,,
1554948010.16266,,,,
1554948010.16268,,,,
1554948010.16270,,,,
1554948010.16272,,,,
1554948010.16273,,,,
1554948010.16274,,,,
1554948010.16276,,,,
1554948010.16278,,,,
1554948010.16280,,,,
1554948010.16281,,,,
1554948010.16281,,,,
1554948010.16282,,,,
1554948010.16283,,,,
1554948010.16284,,,,
1554948010.16286,,,,
1554948010.16431,805.0549316,0,611.6483765,705.5311279
1554948010.16654,,,,
1554948010.16820,787.7289429,83.40659332,806.2637329,832.0512695
1554948010.17210,795.7875366,274.7985229,1035.934082,978.3150024
1554948010.17215,,,,
1554948010.17600,798.6080322,175.2747192,902.1611938,891.2820435
1554948010.17990,799.8168335,0,655.9707031,738.1685181
1554948010.18380,792.1611938,66.08058929,776.8497925,803.4432373
1554948010.18593,,,,
1554948010.18770,803.4432373,176.0805817,969.0476074,975.0915527
1554948010.19152,,,,
1554948010.19160,814.7252808,68.90110016,794.9816895,933.9926758
1554948010.19162,,,,
1554948010.19550,810.2930298,19.3406601,663.2234497,753.8828125
1554948010.19939,809.8901367,11.28205109,671.2820435,771.6116943
1554948010.20329,795.7875366,139.4139252,884.0292969,952.9304199
1554948010.20533,,,,
1554948010.20719,791.7582397,332.417572,1002.893799,991.2088013
1554948010.21089,,,,
1554948010.21109,800.6226807,149.8901062,780.4761963,826.4102783
1554948010.21499,805.0549316,5.238095284,629.3773193,754.6886597
1554948010.21889,799.0109863,37.47252655,766.3735962,904.5787354
1554948010.22279,803.4432373,70.51281738,913.0402832,1002.893799
1554948010.22472,,,,
1554948010.22669,807.8754883,51.97802353,796.9963379,878.3883057
1554948010.22677,,,,
1554948010.23026,,,,
1554948010.23059,805.8607788,22.16117287,677.3259888,768.7911987
1554948010.23448,795.7875366,18.53479767,774.432251,882.0146484
1554948010.23838,807.4725342,66.08058929,940.4395752,1033.919434
1554948010.24228,808.2783813,76.55677795,937.6190186,956.5567627
1554948010.24411,,,,
1554948010.24618,801.8314819,26.19047546,672.4908447,800.2197876
1554948010.24964,,,,
1554948010.25008,813.5164795,8.461538315,505.2747192,848.1685181
1554948010.25398,813.1135254,99.12088013,828.0219727,1001.684998
1554948010.25788,807.8754883,142.6373596,1016.593384,990.4029541
1554948010.26178,800.6226807,29.01098824,740.9890137,826.0073242
1554948010.26191,,,,
1554948010.26351,,,,
1554948010.26381,,,,
1554948010.26381,,,,
1554948010.26398,,,,
1554948010.26402,,,,
1554948010.26403,,,,
1554948010.26405,,,,
1554948010.26407,,,,
1554948010.26409,,,,
1554948010.26410,,,,
1554948010.26411,,,,
1554948010.26413,,,,
1554948010.26415,,,,
1554948010.26416,,,,
1554948010.26417,,,,
1554948010.26418,,,,
1554948010.26418,,,,
1554948010.26419,,,,
1554948010.26421,,,,
1554948010.26567,809.0842285,17.32600784,637.8388062,809.8901367
1554948010.26901,,,,
1554948010.26957,798.6080322,36.26373672,817.5457764,972.6740112
1554948010.27347,796.9963379,84.61538696,1001.684998,1011.355286
1554948010.27737,821.1721802,53.99267578,732.1245117,859.8534546
1554948010.28127,818.3516235,13.6996336,483.5164795,771.6116943
1554948010.28290,,,,
1554948010.28517,796.5933838,33.84615326,837.6923218,904.9816895
1554948010.28838,,,,
1554948010.28907,793.3699341,171.6483459,1147.142822,1035.531128
1554948010.29297,792.5640869,138.6080627,977.1062012,919.8901367
1554948010.29686,793.3699341,13.6996336,713.5897217,777.6557007
1554948010.29706,,,,
1554948010.30076,792.967041,13.6996336,836.0805664,861.0622559
1554948010.30229,,,,
1554948010.30466,803.0402832,147.8754578,1088.717896,1014.578735
1554948010.30775,,,,
1554948010.30856,810.6959839,150.6959686,935.6043701,956.1538696
1554948010.31246,801.8314819,17.72893715,691.4285889,788.9377441
1554948010.31636,798.2051392,6.849816799,742.1978149,828.4249268
1554948010.32026,784.9084473,147.4725342,996.4468994,1001.282043
1554948010.32168,,,,
1554948010.32416,787.7289429,252.6373596,1064.542114,1006.923096
1554948010.32712,,,,
1554948010.32806,801.8314819,76.95970917,795.3846436,842.9304199
1554948010.33195,798.2051392,5.641025543,686.9963379,800.2197876
1554948010.33221,,,,
1554948010.33585,794.9816895,68.09523773,905.7875366,958.5714111
1554948010.33975,803.4432373,66.48351288,929.1575317,1027.472534
1554948010.34108,,,,
1554948010.34365,799.0109863,19.7435894,743.8095093,870.3296509
1554948010.34649,,,,
1554948010.34755,792.967041,30.62271118,680.1465454,775.6410522
1554948010.35145,789.3406372,11.28205109,792.1611938,907.8021851
1554948010.35535,780.8791504,103.9560471,1002.490845,1030.695923
1554948010.35925,781.6849976,123.6996307,919.0842285,926.7399292
1554948010.36047,,,,
1554948010.36314,786.1171875,17.72893715,664.432251,796.1904907
1554948010.36517,,,,
1554948010.36517,,,,
1554948010.36534,,,,
1554948010.36537,,,,
1554948010.36539,,,,
1554948010.36540,,,,
1554948010.36542,,,,
1554948010.36544,,,,
1554948010.36545,,,,
1554948010.36547,,,,
1554948010.36549,,,,
1554948010.36550,,,,
1554948010.36551,,,,
1554948010.36552,,,,
1554948010.36553,,,,
1554948010.36554,,,,
1554948010.36554,,,,
1554948010.36557,,,,
1554948010.36587,,,,
1554948010.36704,794.1758423,24.98168564,677.3259888,873.9560547
1554948010.36736,,,,
1554948010.37094,796.9963379,27.80219841,762.7472534,1019.010986
1554948010.37484,788.9377441,29.41391945,843.333313,963.4066162
1554948010.37874,801.4285889,37.87545776,752.2710571,812.7106323
1554948010.37986,,,,
1554948010.38264,806.666687,0,680.9523926,834.8717651
1554948010.38524,,,,
1554948010.38654,806.2637329,132.1611786,938.8278198,999.267395
1554948010.39044,810.6959839,264.3223572,1012.967041,1017.802185
1554948010.39433,799.0109863,83.40659332,721.6483765,846.1538696
1554948010.39823,794.5787354,0,573.3699341,790.5494385
1554948010.39925,,,,
1554948010.40213,811.098877,79.37728882,807.4725342,942.8571167
1554948010.40250,,,,
1554948010.40461,,,,
1554948010.40603,806.2637329,163.9926758,962.600708,1025.457886
1554948010.40993,805.8607788,62.45421219,744.2124634,889.267395
1554948010.41383,802.6373901,15.31135559,563.2966919,777.6557007
1554948010.41773,787.7289429,20.54944992,742.600708,876.7765503
1554948010.41865,,,,
1554948010.42163,805.0549316,141.4285736,1024.651978,1004.505493
1554948010.42398,,,,
1554948010.42553,811.098877,150.293045,950.1098633,925.1282349
1554948010.42942,789.7435913,20.54944992,487.1428528,761.9414063
1554948010.43332,769.5970459,9.670330048,487.9487305,787.3259888
1554948010.43722,772.0146484,94.2857132,976.300354,959.3773193
1554948010.43765,,,,
1554948010.43804,,,,
1554948010.44112,778.4615479,124.9084244,986.3735962,955.7509155
1554948010.44335,,,,
1554948010.44502,764.7619019,26.19047546,685.3846436,778.4615479
1554948010.44892,760.3296509,6.849816799,679.3406372,764.7619019
1554948010.45282,757.9121094,103.1501846,990,940.4395752
1554948010.45672,757.5091553,130.5494537,1033.516479,980.732605
1554948010.45743,,,,
1554948010.46061,764.7619019,23.77289391,777.6557007,805.0549316
1554948010.46272,,,,
1554948010.46451,761.1355591,22.56410217,754.6886597,727.6923218
1554948010.46652,,,,
1554948010.46652,,,,
1554948010.46669,,,,
1554948010.46672,,,,
1554948010.46674,,,,
1554948010.46676,,,,
1554948010.46677,,,,
1554948010.46679,,,,
1554948010.46680,,,,
1554948010.46682,,,,
1554948010.46684,,,,
1554948010.46685,,,,
1554948010.46687,,,,
1554948010.46687,,,,
1554948010.46688,,,,
1554948010.46689,,,,
1554948010.46690,,,,
1554948010.46692,,,,
1554948010.46841,761.9414063,25.38461494,931.9780273,874.3589478
1554948010.47231,781.6849976,169.6336975,1068.168457,976.7033081
1554948010.47280,,,,
1554948010.47621,805.4578857,155.5311279,904.1758423,857.032959
1554948010.47682,,,,
1554948010.48011,801.0256348,9.670330048,661.6116943,736.1538696
1554948010.48209,,,,
1554948010.48401,786.9230957,33.84615326,782.4908447,833.2600708
1554948010.48791,777.2527466,80.98901367,987.5823975,976.7033081
1554948010.49180,778.0585938,86.6300354,963.8095093,896.1171875
1554948010.49570,796.9963379,49.56044006,812.7106323,737.765564
1554948010.49622,,,,
1554948010.49960,798.2051392,0,783.699646,787.7289429
1554948010.50147,,,,
1554948010.50350,802.234436,130.5494537,992.4176025,954.5421143
1554948010.50740,801.0256348,313.0769348,1037.94873,944.4688721
1554948010.50795,,,,
1554948010.51130,784.1025391,131.7582397,786.1171875,779.6703491
1554948010.51520,772.8204956,12.08791256,677.3259888,759.1208496
1554948010.51561,,,,
1554948010.51910,782.4908447,11.68498135,760.732605,908.6080322
1554948010.52084,,,,
1554948010.52300,788.9377441,227.2527466,965.4212646,952.5274658
1554948010.52689,788.53479,246.1904755,862.6740112,811.9047852
1554948010.53079,785.7142944,0,646.7033081,728.4981689
1554948010.53469,786.9230957,108.7912064,864.6886597,860.2564087
1554948010.53500,,,,
1554948010.53859,792.1611938,332.417572,1016.593384,981.5384521
1554948010.54021,,,,
1554948010.54249,794.1758423,274.7985229,902.5640869,869.9267578
1554948010.54310,,,,
1554948010.54639,797.399292,73.33333588,664.0292969,745.4212646
1554948010.55029,786.5201416,29.41391945,642.6740112,831.2454224
1554948010.55419,793.3699341,334.0292969,995.2380981,985.9707031
1554948010.55440,,,,
1554948010.55808,817.5457764,433.5531006,987.5823975,946.4835205
1554948010.55958,,,,
1554948010.56198,813.5164795,163.1868134,737.765564,785.7142944
1554948010.56588,803.8461304,72.93040466,736.5567627,804.2490845
1554948010.56787,,,,
1554948010.56787,,,,
1554948010.56804,,,,
1554948010.56808,,,,
1554948010.56809,,,,
1554948010.56811,,,,
1554948010.56813,,,,
1554948010.56814,,,,
1554948010.56816,,,,
1554948010.56817,,,,
1554948010.56819,,,,
1554948010.56821,,,,
1554948010.56822,,,,
1554948010.56823,,,,
1554948010.56823,,,,
1554948010.56824,,,,
1554948010.56825,,,,
1554948010.56827,,,,
1554948010.56978,806.666687,374.3223572,979.5238037,977.9121094
1554948010.57368,803.8461304,608.8278198,1077.435913,986.7765503
1554948010.57379,,,,
1554948010.57758,805.0549316,269.9633789,693.8461304,812.3076782
1554948010.57824,,,,
1554948010.57895,,,,
1554948010.58148,806.2637329,12.08791256,508.9010925,754.6886597
1554948010.58538,799.8168335,242.5641022,862.6740112,904.5787354
1554948010.58927,803.8461304,485.5311279,1029.890137,992.8204956
1554948010.59317,810.2930298,424.2857056,881.6116943,855.4212646
1554948010.59318,,,,
1554948010.59707,811.098877,72.93040466,654.7619019,757.9121094
1554948010.59832,,,,
1554948010.60097,796.5933838,156.3369904,803.4432373,875.9707031
1554948010.60487,811.5018311,620.1098633,1115.714233,1007.325989
1554948010.60877,842.1245117,370.2930298,820.7692261,909.0109863
1554948010.61257,,,,
1554948010.61267,816.7399292,2.014652014,568.53479,744.6153564
1554948010.61339,,,,
1554948010.61657,803.4432373,226.4468842,844.5421143,821.1721802
1554948010.61770,,,,
1554948010.62047,815.5311279,574.1758423,1072.600708,998.8644409
1554948010.62436,798.2051392,663.6264038,1036.739868,960.9890137
1554948010.62826,791.7582397,338.4615479,761.5384521,792.5640869
1554948010.63197,,,,
1554948010.63216,790.9523926,173.6630096,716.0073242,795.3846436
1554948010.63606,798.6080322,377.5457764,923.5164795,962.1978149
1554948010.63707,,,,
1554948010.63996,809.4871826,507.2893677,970.6593628,981.5384521
1554948010.64386,811.098877,261.0989075,724.4688721,813.9194336
1554948010.64776,805.0549316,0,532.2710571,761.5384521
1554948010.64854,,,,
1554948010.65136,,,,
1554948010.65166,798.2051392,120.4761887,727.2893677,911.8314819
1554948010.65555,802.6373901,452.8937683,956.5567627,1002.490845
1554948010.65644,,,,
1554948010.65945,804.2490845,359.0109863,797.399292,872.3442993
1554948010.66335,801.8314819,95.49450684,659.1941528,759.5238037
1554948010.66725,814.7252808,40.29304123,709.9633789,872.7472534
1554948010.66923,,,,
1554948010.66923,,,,
1554948010.66940,,,,
1554948010.66943,,,,
1554948010.66945,,,,
1554948010.66946,,,,
1554948010.66948,,,,
1554948010.66950,,,,
1554948010.66951,,,,
1554948010.66953,,,,
1554948010.66954,,,,
1554948010.66956,,,,
1554948010.66957,,,,
1554948010.66958,,,,
1554948010.66959,,,,
1554948010.66959,,,,
1554948010.66960,,,,
1554948010.66963,,,,
1554948010.67075,,,,
1554948010.67115,821.9780273,72.93040466,814.7252808,997.2527466
1554948010.67505,801.0256348,222.0146484,931.1721802,909.0109863
1554948010.67581,,,,
1554948010.67895,802.6373901,101.941391,758.7179565,771.6116943
1554948010.68285,809.8901367,31.83150101,763.1502075,832.4542236
1554948010.68369,,,,
1554948010.68674,803.4432373,314.6886597,1011.75824,996.4468994
1554948010.69014,,,,
1554948010.69064,817.5457764,258.6813049,922.3076782,967.032959
1554948010.69454,818.3516235,29.41391945,739.3773193,802.234436
1554948010.69518,,,,
1554948010.69844,813.5164795,16.11721611,610.8424683,793.3699341
1554948010.70234,812.7106323,57.21611786,752.6740112,934.7985229
1554948010.70624,800.2197876,171.2454224,992.4176025,974.6886597
1554948010.70954,,,,
1554948010.71014,772.0146484,88.24176025,700.6959839,801.0256348
1554948010.71404,746.6300659,10.47619057,394.8717957,699.4871826
1554948010.71455,,,,
1554948010.71794,739.7802124,31.4285717,398.0952454,820.366272
1554948010.71883,,,,
1554948010.72183,727.2893677,25.38461494,272.7838745,881.2088013
1554948010.72573,696.2637329,25.38461494,41.50183105,724.8717651
1554948010.72893,,,,
1554948010.72963,667.2527466,25.38461494,29.01098824,583.0402832
1554948010.73353,647.5091553,25.38461494,27.3992672,668.8644409
1554948010.73393,,,,
1554948010.73743,635.0183105,25.38461494,234.908432,804.2490845
1554948010.74133,624.5421143,25.38461494,559.6703491,716.8131714
1554948010.74523,602.3809814,25.38461494,668.0585938,561.6849976
1554948010.74832,,,,
1554948010.74913,600.7692261,25.38461494,819.9633789,615.6776733
1554948010.75302,588.6813354,24.98168564,1075.018311,776.4468994
1554948010.75330,,,,
1554948010.75398,,,,
1554948010.75692,583.8461304,25.38461494,966.6300659,757.1062012
1554948010.76082,602.3809814,25.38461494,625.3479614,592.7106323
1554948010.76472,603.5897217,25.38461494,740.1831665,595.934082
1554948010.76772,,,,
1554948010.76862,626.9597168,25.38461494,1089.523804,782.0878906
1554948010.77058,,,,
1554948010.77058,,,,
1554948010.77075,,,,
1554948010.77078,,,,
1554948010.77080,,,,
1554948010.77081,,,,
1554948010.77083,,,,
1554948010.77085,,,,
1554948010.77086,,,,
1554948010.77088,,,,
1554948010.77090,,,,
1554948010.77091,,,,
1554948010.77093,,,,
1554948010.77093,,,,
1554948010.77094,,,,
1554948010.77095,,,,
1554948010.77096,,,,
1554948010.77098,,,,
1554948010.77252,653.9560547,25.38461494,1355.457886,847.3626099
1554948010.77267,,,,
1554948010.77642,676.1171875,25.38461494,1267.216064,719.633728
1554948010.78032,696.2637329,25.38461494,1039.963379,659.5970459
1554948010.78421,715.6043701,25.38461494,1130.219727,815.5311279
1554948010.78711,,,,
1554948010.78811,737.765564,24.17582512,1212.014648,947.6923218
1554948010.78913,,,,
1554948010.79201,754.6886597,34.24908447,1070.183105,849.7802124
1554948010.79204,,,,
1554948010.79591,767.5823975,20.54944992,969.4505615,727.2893677
1554948010.79981,784.1025391,64.46886444,1039.560425,833.6630249
1554948010.80371,791.3552856,410.9890137,1267.619019,1006.923096
1554948010.80650,,,,
1554948010.80761,811.098877,612.0512695,1217.252808,960.9890137
1554948010.81141,,,,
1554948010.81151,829.2307739,458.9377441,965.4212646,808.6813354
1554948010.81541,828.0219727,411.7948608,900.9523926,834.4688721
1554948010.81930,843.7362671,645.8974609,1044.39563,999.267395
1554948010.82320,855.8241577,973.8828125,1141.904785,1020.219788
1554948010.82428,,,,
1554948010.82589,,,,
1554948010.82710,851.7948608,888.8644409,906.5933838,867.5091553
1554948010.83078,,,,
1554948010.83100,850.1831665,670.8791504,716.8131714,830.0366211
1554948010.83490,859.0476074,1004.102539,958.5714111,988.7911987
1554948010.83880,863.0769043,1426.373657,1151.978027,1073.406616
1554948010.84270,868.7179565,1411.868164,1013.772888,938.4249268
1554948010.84529,,,,
1554948010.84660,868.7179565,1050.439575,735.7509155,836.4835205
1554948010.85016,,,,
1554948010.85049,867.5091553,979.1208496,765.567749,944.4688721
1554948010.85439,871.1355591,1498.095215,1205.164795,1062.93042
1554948010.85829,871.1355591,30.21977997,1201.538452,977.1062012
1554948010.85942,,,,
1554948010.86219,870.732605,1629.450562,910.2197876,840.1098633
1554948010.86468,,,,
1554948010.86609,878.3883057,1.208791256,986.7765503,913.8461304
1554948010.86953,,,,
1554948010.86999,881.2088013,1650,1243.040283,1068.974365
1554948010.87193,,,,
1554948010.87193,,,,
1554948010.87210,,,,
1554948010.87213,,,,
1554948010.87215,,,,
1554948010.87217,,,,
1554948010.87219,,,,
1554948010.87220,,,,
1554948010.87221,,,,
1554948010.87223,,,,
1554948010.87225,,,,
1554948010.87227,,,,
1554948010.87228,,,,
1554948010.87229,,,,
1554948010.87229,,,,
1554948010.87230,,,,
1554948010.87231,,,,
1554948010.87233,,,,
1554948010.87389,875.164856,1650,1234.578735,1023.84613
1554948010.87779,869.1208496,1650,895.3113403,849.7802124
1554948010.88168,862.6740112,1650,827.2161255,844.5421143
1554948010.88407,,,,
1554948010.88558,867.1062012,1650,1172.527466,1004.102539
1554948010.88890,,,,
1554948010.88948,879.5970459,1650,1301.062256,1029.487183
1554948010.89338,875.9707031,1650,1031.098877,859.8534546
1554948010.89457,,,,
1554948010.89728,865.8974609,1650,882.4176025,806.2637329
1554948010.90118,861.0622559,1650,1088.717896,958.5714111
1554948010.90346,,,,
1554948010.90508,867.1062012,1650,1268.424927,1043.589722
1554948010.90827,,,,
1554948010.90898,873.5531006,1650,971.0622559,909.4139404
1554948010.91288,866.7033081,1650,803.8461304,787.7289429
1554948010.91677,852.1978149,1650,1051.648315,907.8021851
1554948010.92067,848.9743652,1650,1220.476196,1054.065918
1554948010.92286,,,,
1554948010.92457,849.7802124,1650,1062.93042,967.032959
1554948010.92764,,,,
1554948010.92847,842.9304199,1650,786.5201416,807.4725342
1554948010.92972,,,,
1554948010.93237,842.5274658,1650,827.6190186,858.6447144
1554948010.93627,843.7362671,1650,986.3735962,1026.263794
1554948010.94017,848.5714111,1650,867.9121094,1000.476196
1554948010.94225,,,,
1554948010.94407,849.7802124,1650,762.3442993,827.2161255
1554948010.94701,,,,
1554948010.94796,843.7362671,1650,769.5970459,838.4981689
1554948010.95186,846.5567627,1650,974.2857056,1020.622681
1554948010.95576,855.0183105,1650,1108.864502,1059.304077
1554948010.95966,844.9450684,1650,857.032959,891.6849976
1554948010.96164,,,,
1554948010.96356,838.901123,1650,688.2051392,810.2930298
1554948010.96487,,,,
1554948010.96639,,,,
1554948010.96746,846.9597168,1650,875.567749,943.6630249
1554948010.97136,857.4359131,1650,969.4505615,1035.934082
1554948010.97329,,,,
1554948010.97329,,,,
1554948010.97345,,,,
1554948010.97349,,,,
1554948010.97350,,,,
1554948010.97352,,,,
1554948010.97354,,,,
1554948010.97356,,,,
1554948010.97357,,,,
1554948010.97358,,,,
1554948010.97360,,,,
1554948010.97362,,,,
1554948010.97363,,,,
1554948010.97364,,,,
1554948010.97365,,,,
1554948010.97365,,,,
1554948010.97366,,,,
1554948010.97368,,,,
1554948010.97526,850.1831665,1650,838.4981689,909.4139404
1554948010.97915,840.9157715,1650,707.5457764,784.1025391
1554948010.98103,,,,
1554948010.98305,845.7509155,1650,814.7252808,877.9853516
1554948010.98576,,,,
1554948010.98695,855.4212646,1650,1059.706909,1025.86084
1554948010.99085,846.5567627,1650,948.0952148,950.1098633
1554948010.99475,844.9450684,1650,635.4212646,794.5787354
1554948010.99865,851.7948608,1650,533.0769043,833.2600708
1554948011.00001,,,,
1554948011.00043,,,,
1554948011.00255,834.8717651,1650,856.6300659,990
1554948011.00513,,,,
1554948011.00645,838.4981689,1650,1108.058594,987.1795044
1554948011.01035,853.4066162,1650,880,824.3956299
1554948011.01424,839.7069702,1650,744.6153564,801.0256348
1554948011.01814,826.0073242,1650,926.3369751,959.7802124
1554948011.01982,,,,
1554948011.02204,847.3626099,1650,1131.831543,1012.564087
1554948011.02450,,,,
1554948011.02594,858.6447144,1650,880,870.3296509
1554948011.02984,845.3479614,1650,635.8241577,780.8791504
1554948011.03374,841.3186646,1650,924.7252808,913.8461304
1554948011.03516,,,,
1554948011.03764,848.1685181,1650,1183.406616,1037.545776
1554948011.03921,,,,
1554948011.04154,848.9743652,1650,1029.487183,929.9633789
1554948011.04387,,,,
1554948011.04543,839.7069702,1650,742.1978149,802.234436
1554948011.04933,838.4981689,1650,737.765564,878.7911987
1554948011.05323,832.0512695,1650,969.4505615,1021.428589
1554948011.05713,834.8717651,1650,898.9377441,967.8388062
1554948011.05861,,,,
1554948011.06103,840.5128174,1650,602.7838745,797.8021851
1554948011.06324,,,,
1554948011.06493,829.2307739,1650,564.9084473,821.1721802
1554948011.06883,831.2454224,1650,832.4542236,984.7619019
1554948011.07031,,,,
1554948011.07273,831.2454224,1650,981.5384521,1001.684998
1554948011.07464,,,,
1554948011.07464,,,,
1554948011.07481,,,,
1554948011.07484,,,,
1554948011.07486,,,,
1554948011.07487,,,,
1554948011.07489,,,,
1554948011.07491,,,,
1554948011.07492,,,,
1554948011.07494,,,,
1554948011.07496,,,,
1554948011.07497,,,,
1554948011.07498,,,,
1554948011.07499,,,,
1554948011.07500,,,,
1554948011.07501,,,,
1554948011.07501,,,,
1554948011.07504,,,,
1554948011.07662,838.4981689,1649.597046,718.8278198,844.9450684
1554948011.07800,,,,
1554948011.08052,845.7509155,1650,579.0109863,789.3406372
1554948011.08262,,,,
1554948011.08442,841.7216187,1645.970703,812.3076782,941.2454224
1554948011.08832,846.9597168,1639.523804,882.0146484,1014.981689
1554948011.09222,840.1098633,1581.904785,711.5750732,861.0622559
1554948011.09612,817.5457764,1427.179443,646.7033081,761.9414063
1554948011.09739,,,,
1554948011.10002,814.7252808,1463.846191,763.1502075,887.6557007
1554948011.10199,,,,
1554948011.10392,829.633728,21.75824165,975.8974609,1010.549438
1554948011.10546,,,,
1554948011.10782,835.2747192,1524.688599,793.7728882,906.9963379
1554948011.11171,812.7106323,1057.692261,452.4908447,752.6740112
1554948011.11561,799.4139404,929.9633789,510.5128174,819.1575317
1554948011.11678,,,,
1554948011.11951,817.5457764,1058.095215,702.7106323,971.46521
1554948011.12136,,,,
1554948011.12341,827.2161255,1295.018311,836.8864746,918.2783813
1554948011.12731,832.8571167,1216.043945,689.4139404,759.5238037
1554948011.13121,831.2454224,987.9853516,575.3846436,763.9560547
1554948011.13511,830.0366211,1207.179443,823.5897217,920.2930298
1554948011.13618,,,,
1554948011.13901,824.3956299,1367.545776,917.4725342,947.2893677
1554948011.14060,,,,
1554948011.14073,,,,
1554948011.14290,818.3516235,1125.787598,690.2197876,787.3259888
1554948011.14680,826.0073242,817.9487305,533.0769043,723.2600708
1554948011.15070,815.5311279,981.1355591,756.7033081,865.8974609
1554948011.15460,810.2930298,1316.776611,974.2857056,968.6447144
1554948011.15557,,,,
1554948011.15850,818.7545776,1089.12085,751.46521,842.5274658
1554948011.16010,,,,
1554948011.16240,813.1135254,786.9230957,579.4139404,720.4395752
1554948011.16630,821.1721802,847.3626099,721.2454224,838.0952148
1554948011.17020,819.5604248,1131.428589,963.0036621,986.7765503
1554948011.17409,813.5164795,1232.967041,944.8717651,909.8168335
1554948011.17496,,,,
1554948011.17575,,,,
1554948011.17599,,,,
1554948011.17599,,,,
1554948011.17616,,,,
1554948011.17619,,,,
1554948011.17621,,,,
1554948011.17623,,,,
1554948011.17624,,,,
1554948011.17626,,,,
1554948011.17627,,,,
1554948011.17629,,,,
1554948011.17631,,,,
1554948011.17632,,,,
1554948011.17634,,,,
1554948011.17634,,,,
1554948011.17635,,,,
1554948011.17636,,,,
1554948011.17637,,,,
1554948011.17639,,,,
1554948011.17799,829.633728,603.9926758,500.8424988,751.46521
1554948011.17947,,,,
1554948011.18189,828.8278198,436.3736267,545.164856,781.2820435
1554948011.18579,819.5604248,1051.648315,1016.593384,958.9743652
1554948011.18969,814.7252808,1224.102539,1039.963379,959.7802124
1554948011.19359,809.8901367,942.4542236,770,787.7289429
1554948011.19435,,,,
1554948011.19749,812.7106323,741.3919678,674.9084473,776.8497925
1554948011.19884,,,,
1554948011.20139,829.633728,1002.087891,933.9926758,946.0805664
1554948011.20529,831.6483765,1103.626343,974.6886597,997.6557007
1554948011.20918,817.1428833,662.0146484,657.1795044,827.6190186
1554948011.21090,,,,
1554948011.21308,816.3369751,560.8791504,658.7911987,737.765564
1554948011.21375,,,,
1554948011.21698,810.6959839,907.399292,946.8864746,896.9230957
1554948011.21822,,,,
1554948011.22088,800.2197876,1193.076904,1112.087891,1013.772888
1554948011.22478,810.2930298,1006.117188,897.7289429,898.131897
1554948011.22868,812.7106323,604.3956299,625.7509155,773.6264038
1554948011.23258,804.6520386,739.7802124,795.3846436,873.9560547
1554948011.23314,,,,
1554948011.23648,813.1135254,938.4249268,949.7069702,1020.622681
1554948011.23759,,,,
1554948011.24037,810.2930298,857.032959,819.9633789,935.6043701
1554948011.24427,807.4725342,693.4432373,648.3150024,769.1941528
1554948011.24605,,,,
1554948011.24817,810.2930298,615.2747192,638.2417603,817.1428833
1554948011.25207,802.6373901,770.4029541,815.934082,986.7765503
1554948011.25253,,,,
1554948011.25597,804.2490845,963.0036621,931.9780273,976.7033081
1554948011.25696,,,,
1554948011.25987,811.098877,810.6959839,772.8204956,819.5604248
1554948011.26377,809.4871826,552.4176025,631.7948608,802.6373901
1554948011.26767,800.6226807,476.6666565,690.2197876,958.9743652
1554948011.27157,791.7582397,759.1208496,904.9816895,1013.772888
1554948011.27193,,,,
1554948011.27546,801.4285889,831.6483765,829.633728,877.1795044
1554948011.27633,,,,
1554948011.27735,,,,
1554948011.27735,,,,
1554948011.27751,,,,
1554948011.27755,,,,
1554948011.27756,,,,
1554948011.27758,,,,
1554948011.27760,,,,
1554948011.27761,,,,
1554948011.27763,,,,
1554948011.27764,,,,
1554948011.27766,,,,
1554948011.27768,,,,
1554948011.27769,,,,
1554948011.27770,,,,
1554948011.27771,,,,
1554948011.27771,,,,
1554948011.27772,,,,
1554948011.27774,,,,
1554948011.27936,809.8901367,523.0036621,591.9047852,789.3406372
1554948011.28119,,,,
1554948011.28326,804.6520386,559.267395,708.3516235,910.2197876
1554948011.28716,807.0695801,860.2564087,925.934082,1023.040283
1554948011.29106,811.9047852,924.3223267,863.4798584,920.2930298
1554948011.29132,,,,
1554948011.29496,803.4432373,543.1502075,547.5823975,786.5201416
1554948011.29570,,,,
1554948011.29886,806.2637329,295.3479919,506.8864441,861.868103
1554948011.30276,799.0109863,741.3919678,903.3699341,1005.31134
1554948011.30665,794.1758423,1061.318726,1010.952393,967.032959
1554948011.31055,803.8461304,756.300354,707.1428833,808.2783813
1554948011.31071,,,,
1554948011.31445,808.2783813,570.1465454,613.6630249,815.5311279
1554948011.31507,,,,
1554948011.31634,,,,
1554948011.31835,813.9194336,815.934082,830.4395752,981.1355591
1554948011.32225,818.3516235,1047.619019,922.7106323,996.0439453
1554948011.32615,812.7106323,746.2271118,638.2417603,835.2747192
1554948011.33005,801.4285889,501.6483459,528.6447144,784.9084473
1554948011.33010,,,,
1554948011.33395,804.2490845,782.0878906,799.8168335,936.8131714
1554948011.33445,,,,
1554948011.33784,817.5457764,1060.512817,962.1978149,1025.054932
1554948011.34174,805.8607788,815.5311279,730.1098633,888.8644409
1554948011.34564,805.8607788,415.8241882,514.5421143,782.4908447
1554948011.34950,,,,
1554948011.34954,816.7399292,579.4139404,739.7802124,896.5201416
1554948011.35149,,,,
1554948011.35344,811.098877,1021.831482,1040.366333,1037.545776
1554948011.35382,,,,
1554948011.35734,813.1135254,789.7435913,811.098877,954.1392212
1554948011.36124,807.8754883,322.3443298,508.4981689,786.9230957
1554948011.36514,796.9963379,568.9377441,737.3626099,856.2271118
1554948011.36889,,,,
1554948011.36903,797.8021851,995.2380981,1024.249023,1035.531128
1554948011.37293,801.4285889,1098.79126,1015.787537,1000.073242
1554948011.37319,,,,
1554948011.37683,806.2637329,791.7582397,752.6740112,824.7985229
1554948011.37870,,,,
1554948011.37870,,,,
1554948011.37887,,,,
1554948011.37890,,,,
1554948011.37892,,,,
1554948011.37893,,,,
1554948011.37895,,,,
1554948011.37897,,,,
1554948011.37898,,,,
1554948011.37900,,,,
1554948011.37901,,,,
1554948011.37903,,,,
1554948011.37904,,,,
1554948011.37905,,,,
1554948011.37906,,,,
1554948011.37906,,,,
1554948011.37907,,,,
1554948011.37910,,,,
1554948011.38073,802.234436,667.2527466,724.065918,823.1868286
1554948011.38463,811.5018311,851.3919678,909.8168335,996.8497925
1554948011.38664,,,,
1554948011.38828,,,,
1554948011.38853,815.5311279,963.4066162,954.9450684,1022.234436
1554948011.39243,802.6373901,793.3699341,772.4176025,855.4212646
1554948011.39256,,,,
1554948011.39633,805.0549316,546.3735962,615.2747192,805.8607788
1554948011.40023,803.8461304,672.8937988,766.7765503,954.1392212
1554948011.40412,803.8461304,991.2088013,956.5567627,1038.754639
1554948011.40767,,,,
1554948011.40802,807.4725342,943.6630249,812.3076782,902.5640869
1554948011.41192,809.4871826,672.0878906,604.3956299,786.1171875
1554948011.41193,,,,
1554948011.41582,807.8754883,603.5897217,660,891.6849976
1554948011.41972,821.1721802,902.5640869,929.9633789,1031.098877
1554948011.42178,,,,
1554948011.42362,826.0073242,1004.102539,917.0695801,957.765564
1554948011.42707,,,,
1554948011.42752,813.5164795,684.9816895,652.3442993,803.8461304
1554948011.43130,,,,
1554948011.43142,815.934082,604.3956299,667.6557007,846.1538696
1554948011.43531,820.7692261,845.3479614,880.8058472,1007.728943
1554948011.43921,821.5750732,865.8974609,863.0769043,983.5531006
1554948011.44311,817.5457764,570.5494385,636.6300659,809.4871826
1554948011.44646,,,,
1554948011.44701,820.366272,298.1684875,521.7948608,797.399292
1554948011.45068,,,,
1554948011.45091,822.7838745,289.7069702,651.9414063,952.1245117
1554948011.45481,812.3076782,654.7619019,909.8168335,987.1795044
1554948011.45693,,,,
1554948011.45871,817.1428833,747.8388062,864.2857056,844.1392212
1554948011.46261,812.3076782,542.3442993,699.4871826,779.6703491
1554948011.46585,,,,
1554948011.46650,796.1904907,668.4615479,825.2014771,903.7728882
1554948011.47005,,,,
1554948011.47040,807.0695801,1018.205139,1043.589722,1004.102539
1554948011.47430,818.3516235,880,848.9743652,890.4761963
1554948011.47820,811.9047852,420.2564087,541.5384521,740.5860596
1554948011.48005,,,,
1554948011.48005,,,,
1554948011.48022,,,,
1554948011.48025,,,,
1554948011.48027,,,,
1554948011.48028,,,,
1554948011.48030,,,,
1554948011.48032,,,,
1554948011.48033,,,,
1554948011.48035,,,,
1554948011.48037,,,,
1554948011.48038,,,,
1554948011.48040,,,,
1554948011.48040,,,,
1554948011.48041,,,,
1554948011.48042,,,,
1554948011.48043,,,,
1554948011.48045,,,,
1554948011.48210,816.3369751,469.4139099,687.399292,825.2014771
1554948011.48525,,,,
1554948011.48600,820.366272,754.2857056,939.633728,983.5531006
1554948011.48942,,,,
1554948011.48990,811.5018311,834.4688721,944.4688721,919.8901367
1554948011.49208,,,,
1554948011.49380,812.7106323,552.8204956,701.5018311,755.0915527
1554948011.49770,815.1282349,459.3406677,709.5604248,787.7289429
1554948011.50159,818.3516235,858.6447144,1046.410278,959.7802124
1554948011.50464,,,,
1554948011.50549,821.5750732,915.4578857,1030.293091,961.3919678
1554948011.50879,,,,
1554948011.50939,804.6520386,506.0805969,717.2161255,784.1025391
1554948011.51329,792.1611938,461.7582397,734.1392212,733.7362671
1554948011.51719,807.4725342,729.7069702,960.5860596,892.8937988
1554948011.52109,823.9926758,989.1941528,1083.479858,965.8241577
1554948011.52403,,,,
1554948011.52499,819.5604248,873.5531006,897.7289429,819.9633789
1554948011.52723,,,,
1554948011.52816,,,,
1554948011.52889,796.9963379,564.5054932,687.8021851,729.7069702
1554948011.53278,799.0109863,624.9450684,819.5604248,854.6153564
1554948011.53668,813.5164795,785.3113403,963.0036621,967.8388062
1554948011.54058,811.9047852,616.0805664,811.5018311,853.8095093
1554948011.54342,,,,
1554948011.54448,794.5787354,545.164856,748.6447144,722.8571167
1554948011.54753,,,,
1554948011.54838,786.5201416,682.1611938,871.9414063,818.3516235
1554948011.55228,802.234436,954.1392212,1058.498169,967.8388062
1554948011.55618,812.3076782,960.9890137,985.164856,919.0842285
1554948011.56008,803.4432373,663.6264038,718.4249268,757.9121094
1554948011.56238,,,,
1554948011.56282,,,,
1554948011.56397,805.4578857,438.3882751,612.4542236,768.7911987
1554948011.56691,,,,
1554948011.56787,812.7106323,678.53479,850.9890137,931.5750732
1554948011.57177,813.5164795,902.5640869,944.4688721,948.4981689
1554948011.57567,806.2637329,595.5311279,674.5054932,781.2820435
1554948011.57957,801.8314819,318.315033,563.2966919,728.4981689
1554948011.58141,,,,
1554948011.58141,,,,
1554948011.58157,,,,
1554948011.58161,,,,
1554948011.58162,,,,
1554948011.58164,,,,
1554948011.58166,,,,
1554948011.58167,,,,
1554948011.58168,,,,
1554948011.58170,,,,
1554948011.58172,,,,
1554948011.58174,,,,
1554948011.58175,,,,
1554948011.58176,,,,
1554948011.58176,,,,
1554948011.58177,,,,
1554948011.58178,,,,
1554948011.58180,,,,
1554948011.58221,,,,
1554948011.58347,801.8314819,532.2710571,820.366272,877.5823975
1554948011.58628,,,,
1554948011.58737,809.0842285,858.2417603,1041.978027,960.1831665
1554948011.59127,821.9780273,743.8095093,883.2234497,820.7692261
1554948011.59517,813.1135254,335.6410217,612.4542236,707.1428833
1554948011.59752,,,,
1554948011.59906,819.9633789,150.6959686,622.5274658,801.0256348
1554948011.60160,,,,
1554948011.60296,801.8314819,639.4505615,1005.714294,921.9047852
1554948011.60565,,,,
1554948011.60686,788.9377441,796.1904907,981.1355591,854.2124634
1554948011.61076,800.6226807,400.5128174,655.567749,707.9487305
1554948011.61466,798.6080322,400.5128174,728.901123,765.164856
1554948011.61856,811.5018311,730.1098633,969.8534546,928.3516235
1554948011.62099,,,,
1554948011.62246,816.3369751,794.9816895,932.7838745,882.8204956
1554948011.62502,,,,
1554948011.62636,805.8607788,294.9450684,525.4212646,706.7399292
1554948011.63025,808.6813354,93.07691956,464.5787659,695.4578857
1554948011.63267,,,,
1554948011.63415,820.7692261,505.6776428,867.5091553,865.8974609
1554948011.63805,800.2197876,797.8021851,1002.893799,909.0109863
1554948011.64039,,,,
1554948011.64195,789.7435913,648.7179565,778.0585938,746.2271118
1554948011.64439,,,,
1554948011.64585,800.6226807,398.4981689,601.1721802,680.5494385
1554948011.64975,811.9047852,580.6226807,780.8791504,818.3516235
1554948011.65365,819.9633789,777.2527466,903.3699341,906.1904907
1554948011.65755,820.366272,583.0402832,734.9450684,780.0732422
1554948011.65978,,,,
1554948011.66144,821.9780273,374.3223572,600.7692261,661.2088013
1554948011.66376,,,,
1554948011.66534,815.1282349,527.4359131,758.3150024,771.2088013
1554948011.66782,,,,
1554948011.66924,803.8461304,883.6264038,993.2234497,912.234436
1554948011.67314,804.6520386,823.1868286,871.5384521,831.2454224
1554948011.67704,798.2051392,520.9890137,657.5823975,676.5201416
1554948011.67917,,,,
1554948011.68094,797.399292,574.5787354,764.7619019,723.6630249
1554948011.68276,,,,
1554948011.68276,,,,
1554948011.68293,,,,
1554948011.68296,,,,
1554948011.68297,,,,
1554948011.68299,,,,
1554948011.68301,,,,
1554948011.68303,,,,
1554948011.68304,,,,
1554948011.68305,,,,
1554948011.68307,,,,
1554948011.68309,,,,
1554948011.68310,,,,
1554948011.68311,,,,
1554948011.68312,,,,
1554948011.68312,,,,
1554948011.68313,,,,
1554948011.68314,,,,
1554948011.68315,,,,
1554948011.68484,807.8754883,772.8204956,945.6776733,898.53479
1554948011.68874,815.1282349,726.0805664,884.0292969,874.7619019
1554948011.69264,795.3846436,557.2527466,705.934082,697.4725342
1554948011.69653,790.1465454,509.7069702,674.5054932,697.0695801
1554948011.69856,,,,
1554948011.70043,806.2637329,809.0842285,916.666687,871.1355591
1554948011.70251,,,,
1554948011.70297,,,,
1554948011.70433,816.7399292,1034.72522,1015.787537,931.1721802
1554948011.70823,826.4102783,817.9487305,785.7142944,775.6410522
1554948011.71213,818.3516235,589.0842285,653.1502075,689.4139404
1554948011.71603,815.934082,595.5311279,750.2564087,826.0073242
1554948011.71796,,,,
1554948011.71993,817.9487305,836.8864746,945.6776733,933.5897217
1554948011.72188,,,,
1554948011.72383,822.7838745,841.3186646,873.9560547,827.6190186
1554948011.72772,815.1282349,588.2783813,673.2966919,698.2783813
1554948011.73162,801.0256348,702.7106323,807.8754883,782.8937988
1554948011.73552,801.8314819,1051.648315,1057.692261,935.2014771
1554948011.73735,,,,
1554948011.73811,,,,
1554948011.73942,801.8314819,1143.113525,1025.86084,887.6557007
1554948011.74125,,,,
1554948011.74332,807.8754883,793.3699341,720.8424683,736.9597168
1554948011.74722,812.7106323,478.2783813,606.8131714,752.2710571
1554948011.75112,793.3699341,743.8095093,888.8644409,910.6226807
1554948011.75502,785.7142944,1145.531128,1079.450562,925.1282349
1554948011.75674,,,,
1554948011.75892,806.666687,972.6740112,826.0073242,763.5531006
1554948011.76062,,,,
1554948011.76281,808.6813354,708.3516235,634.2124634,735.7509155
1554948011.76671,809.8901367,731.7216187,743.4066162,892.4908447
1554948011.77061,808.2783813,1038.351685,967.4359131,956.9597168
1554948011.77326,,,,
1554948011.77451,809.4871826,910.2197876,792.5640869,827.6190186
1554948011.77614,,,,
1554948011.77841,819.1575317,342.4908447,465.7875366,727.2893677
1554948011.77999,,,,
1554948011.78231,813.5164795,592.3076782,769.5970459,837.6923218
1554948011.78411,,,,
1554948011.78411,,,,
1554948011.78428,,,,
1554948011.78431,,,,
1554948011.78433,,,,
1554948011.78434,,,,
1554948011.78436,,,,
1554948011.78438,,,,
1554948011.78439,,,,
1554948011.78441,,,,
1554948011.78443,,,,
1554948011.78444,,,,
1554948011.78445,,,,
1554948011.78446,,,,
1554948011.78447,,,,
1554948011.78448,,,,
1554948011.78448,,,,
1554948011.78451,,,,
1554948011.78621,811.098877,1164.871826,1137.06958,977.9121094
1554948011.79011,807.8754883,1122.564087,988.3883057,889.6703491
1554948011.79400,801.0256348,816.7399292,724.8717651,745.4212646
1554948011.79553,,,,
1554948011.79790,802.6373901,771.2088013,755.0915527,820.7692261
1554948011.79937,,,,
1554948011.80180,796.9963379,1089.926758,1016.996338,981.9414063
1554948011.80570,797.8021851,1100.805908,959.7802124,935.2014771
1554948011.80841,,,,
1554948011.80960,806.2637329,684.9816895,645.8974609,763.1502075
1554948011.81350,805.0549316,545.164856,645.8974609,778.8644409
1554948011.81492,,,,
1554948011.81740,803.8461304,868.7179565,941.2454224,948.0952148
1554948011.81874,,,,
1554948011.82130,807.8754883,1131.428589,1044.39563,970.6593628
1554948011.82519,813.5164795,963.4066162,823.5897217,808.2783813
1554948011.82909,817.1428833,805.0549316,719.633728,757.5091553
1554948011.83299,807.4725342,990,886.4468994,912.234436
1554948011.83431,,,,
1554948011.83689,814.3223267,977.1062012,882.8204956,978.3150024
1554948011.83811,,,,
1554948011.84079,819.5604248,724.065918,696.666687,819.1575317
1554948011.84356,,,,
1554948011.84469,808.6813354,684.5787354,661.2088013,724.8717651
1554948011.84859,812.7106323,809.0842285,785.7142944,859.8534546
1554948011.85249,810.6959839,1150.366333,1014.981689,991.6116943
1554948011.85371,,,,
1554948011.85639,805.8607788,1149.560425,913.0402832,909.0109863
1554948011.85748,,,,
1554948011.86028,805.8607788,765.9707031,619.3040161,763.5531006
1554948011.86418,807.8754883,661.6116943,631.3919678,831.2454224
1554948011.86808,806.666687,739.3773193,775.6410522,988.7911987
1554948011.87198,785.3113403,919.8901367,883.6264038,942.0512695
1554948011.87310,,,,
1554948011.87588,787.7289429,877.1795044,772.4176025,790.5494385
1554948011.87685,,,,
1554948011.87870,,,,
1554948011.87978,803.0402832,718.4249268,688.2051392,802.6373901
1554948011.88368,808.6813354,952.5274658,910.2197876,978.3150024
1554948011.88547,,,,
1554948011.88547,,,,
1554948011.88563,,,,
1554948011.88566,,,,
1554948011.88568,,,,
1554948011.88570,,,,
1554948011.88572,,,,
1554948011.88573,,,,
1554948011.88574,,,,
1554948011.88576,,,,
1554948011.88578,,,,
1554948011.88579,,,,
1554948011.88581,,,,
1554948011.88581,,,,
1554948011.88582,,,,
1554948011.88583,,,,
1554948011.88584,,,,
1554948011.88586,,,,
1554948011.88758,796.5933838,1138.681274,1006.117188,1018.205139
1554948011.89147,787.3259888,927.5457764,793.3699341,851.7948608
1554948011.89249,,,,
1554948011.89537,800.6226807,579.4139404,607.6190186,780.4761963
1554948011.89622,,,,
1554948011.89927,804.6520386,759.9267578,853.0036621,921.098877
1554948011.90317,807.0695801,1071.391968,1060.109863,1025.054932
1554948011.90707,810.6959839,856.6300659,859.0476074,901.7582397
1554948011.91097,803.0402832,674.9084473,745.4212646,772.0146484
1554948011.91188,,,,
1554948011.91385,,,,
1554948011.91487,801.0256348,779.6703491,866.300354,873.5531006
1554948011.91559,,,,
1554948011.91877,801.8314819,1087.912109,1091.941406,1014.981689
1554948011.92266,803.4432373,1120.549438,1026.263794,942.8571167
1554948011.92656,815.5311279,484.7252808,575.7875366,784.1025391
1554948011.93046,815.934082,352.967041,612.8571167,809.8901367
1554948011.93128,,,,
1554948011.93436,799.0109863,980.3296509,1077.435913,982.7472534
1554948011.93497,,,,
1554948011.93826,800.2197876,1225.714233,1133.040283,990.4029541
1554948011.94216,800.6226807,946.8864746,845.7509155,829.633728
1554948011.94606,805.0549316,734.1392212,741.3919678,813.5164795
1554948011.94900,,,,
1554948011.94996,812.7106323,980.3296509,992.8204956,973.0769043
1554948011.95067,,,,
1554948011.95386,823.5897217,1072.600708,1046.007324,1023.443237
1554948011.95434,,,,
1554948011.95775,821.5750732,732.1245117,786.9230957,859.4505615
1554948011.96165,811.098877,634.2124634,749.0476074,776.0439453
1554948011.96555,817.1428833,904.9816895,965.8241577,928.7545776
1554948011.96945,815.1282349,1175.348022,1114.102539,1040.366333
1554948011.97006,,,,
1554948011.97335,814.3223267,1157.216064,1007.325989,923.9194336
1554948011.97371,,,,
1554948011.97725,815.934082,880.4029541,776.8497925,798.2051392
1554948011.98115,807.0695801,851.3919678,814.7252808,885.2380981
1554948011.98415,,,,
1554948011.98505,804.6520386,1029.084229,967.032959,1030.695923
1554948011.98682,,,,
1554948011.98682,,,,
1554948011.98698,,,,
1554948011.98702,,,,
1554948011.98703,,,,
1554948011.98705,,,,
1554948011.98707,,,,
1554948011.98708,,,,
1554948011.98710,,,,
1554948011.98711,,,,
1554948011.98713,,,,
1554948011.98715,,,,
1554948011.98716,,,,
1554948011.98717,,,,
1554948011.98718,,,,
1554948011.98718,,,,
1554948011.98719,,,,
1554948011.98721,,,,
1554948011.98894,813.1135254,1081.062256,923.5164795,967.032959
1554948011.98946,,,,
1554948011.99284,805.8607788,950.9157715,759.9267578,811.9047852
1554948011.99308,,,,
1554948011.99674,796.5933838,799.8168335,688.2051392,847.765564
1554948012.00064,801.4285889,931.1721802,855.0183105,1005.31134
1554948012.00454,797.399292,1094.761963,955.3479614,992.0146484
1554948012.00844,802.234436,953.7362671,784.9084473,820.7692261
1554948012.00885,,,,
1554948012.01234,812.3076782,778.4615479,683.7728882,788.53479
1554948012.01245,,,,
1554948012.01624,811.098877,946.0805664,892.0878906,935.6043701
1554948012.01929,,,,
1554948012.02013,815.5311279,1219.670288,1061.721558,994.432251
1554948012.02403,822.3809814,1167.289429,916.666687,857.032959
1554948012.02793,815.934082,857.032959,690.2197876,762.7472534
1554948012.02824,,,,
1554948012.03182,,,,
1554948012.03183,813.9194336,908.2051392,807.8754883,878.3883057
1554948012.03573,821.9780273,1277.289429,1073.406616,996.8497925
1554948012.03963,806.2637329,1183.80957,929.1575317,892.8937988
1554948012.04353,811.5018311,791.3552856,645.4945068,751.46521
1554948012.04743,820.7692261,537.9121094,593.1135254,817.9487305
1554948012.04763,,,,
1554948012.05120,,,,
1554948012.05133,813.1135254,735.3479614,849.3773193,955.7509155
1554948012.05444,,,,
1554948012.05522,817.5457764,1126.19043,1035.128174,914.6520386
1554948012.05912,810.2930298,1024.651978,837.2893677,761.5384521
1554948012.06302,807.8754883,903.7728882,770.4029541,770.4029541
1554948012.06692,809.8901367,1149.157471,987.1795044,930.7692261
1554948012.06703,,,,
1554948012.07057,,,,
1554948012.07082,814.7252808,1334.505493,1061.721558,948.4981689
1554948012.07472,815.5311279,1019.816834,779.267395,773.6264038
1554948012.07862,806.2637329,728.4981689,635.8241577,705.934082
1554948012.08252,811.9047852,953.7362671,870.3296509,861.868103
1554948012.08641,821.5750732,1200.732544,1016.996338,949.7069702
1554948012.08642,,,,
1554948012.08817,,,,
1554948012.08817,,,,
1554948012.08834,,,,
1554948012.08837,,,,
1554948012.08839,,,,
1554948012.08840,,,,
1554948012.08842,,,,
1554948012.08844,,,,
1554948012.08845,,,,
1554948012.08847,,,,
1554948012.08849,,,,
1554948012.08850,,,,
1554948012.08851,,,,
1554948012.08852,,,,
1554948012.08853,,,,
1554948012.08854,,,,
1554948012.08854,,,,
1554948012.08857,,,,
1554948012.08959,,,,
1554948012.08994,,,,
1554948012.09031,819.9633789,994.0292969,796.5933838,811.098877
1554948012.09421,819.5604248,514.5421143,510.5128174,706.3369751
1554948012.09811,824.3956299,413.0036621,612.8571167,820.366272
1554948012.10201,831.6483765,788.9377441,949.7069702,960.9890137
1554948012.10581,,,,
1554948012.10591,841.3186646,651.1355591,807.4725342,880
1554948012.10931,,,,
1554948012.10981,840.5128174,215.9707031,499.2307739,722.4542236
1554948012.11371,831.2454224,421.46521,667.6557007,786.9230957
1554948012.11760,832.0512695,828.4249268,939.2307739,956.9597168
1554948012.12150,840.1098633,941.2454224,931.5750732,924.7252808
1554948012.12474,,,,
1554948012.12520,,,,
1554948012.12540,833.6630249,668.8644409,681.3552856,751.868103
1554948012.12868,,,,
1554948012.12930,815.1282349,532.6740112,646.7033081,744.6153564
1554948012.13320,819.1575317,736.5567627,861.46521,917.8754883
1554948012.13710,832.8571167,869.1208496,931.5750732,961.7948608
1554948012.14100,828.4249268,616.8864746,722.0512695,802.234436
1554948012.14460,,,,
1554948012.14490,829.633728,348.1318665,613.2600708,734.9450684
1554948012.14805,,,,
1554948012.14879,827.6190186,639.4505615,898.9377441,886.8497925
1554948012.15269,830.8424683,1009.340637,1106.446899,991.2088013
1554948012.15659,818.7545776,869.9267578,902.967041,862.2710571
1554948012.15988,,,,
1554948012.16049,809.8901367,608.0219727,700.6959839,740.1831665
1554948012.16399,,,,
1554948012.16439,824.3956299,558.8644409,744.6153564,847.3626099
1554948012.16743,,,,
1554948012.16829,830.0366211,627.765564,881.2088013,974.6886597
1554948012.17219,821.9780273,858.6447144,1004.102539,894.1025391
1554948012.17609,800.2197876,761.5384521,859.4505615,763.9560547
1554948012.17999,803.8461304,634.2124634,807.8754883,807.8754883
1554948012.18338,,,,
1554948012.18388,819.1575317,921.5018311,1043.589722,969.4505615
1554948012.18680,,,,
1554948012.18778,825.2014771,1037.94873,1066.153809,965.8241577
1554948012.18953,,,,
1554948012.18953,,,,
1554948012.18969,,,,
1554948012.18972,,,,
1554948012.18974,,,,
1554948012.18975,,,,
1554948012.18977,,,,
1554948012.18979,,,,
1554948012.18980,,,,
1554948012.18982,,,,
1554948012.18984,,,,
1554948012.18985,,,,
1554948012.18987,,,,
1554948012.18987,,,,
1554948012.18988,,,,
1554948012.18989,,,,
1554948012.18990,,,,
1554948012.18992,,,,
1554948012.19168,824.3956299,841.7216187,853.0036621,798.2051392
1554948012.19503,,,,
1554948012.19558,830.8424683,512.5274658,677.3259888,780.0732422
1554948012.19948,817.5457764,699.8901367,904.9816895,941.6483765
1554948012.20277,,,,
1554948012.20338,801.4285889,1192.67395,1177.362671,996.0439453
1554948012.20617,,,,
1554948012.20728,809.4871826,1036.739868,941.6483765,853.4066162
1554948012.21118,811.098877,751.0622559,738.9743652,772.8204956
1554948012.21507,811.5018311,802.6373901,860.6593628,901.3552856
1554948012.21897,809.0842285,1113.699585,1088.315063,1015.384644
1554948012.22217,,,,
1554948012.22287,814.3223267,1029.890137,939.633728,906.1904907
1554948012.22554,,,,
1554948012.22677,808.6813354,606.0073242,652.3442993,768.7911987
1554948012.23018,,,,
1554948012.23067,808.2783813,689.4139404,792.967041,853.0036621
1554948012.23457,818.7545776,966.6300659,1003.296692,1006.923096
1554948012.23847,821.5750732,995.2380981,956.9597168,950.9157715
1554948012.24156,,,,
1554948012.24237,826.0073242,720.4395752,712.7838745,792.967041
1554948012.24491,,,,
1554948012.24626,813.1135254,622.1245117,697.0695801,817.5457764
1554948012.25016,801.8314819,958.5714111,971.46521,990
1554948012.25406,811.9047852,998.8644409,956.5567627,1005.714294
1554948012.25796,810.2930298,571.7582397,639.0476074,828.0219727
1554948012.26095,,,,
1554948012.26186,802.6373901,502.4542236,640.6593628,791.3552856
1554948012.26428,,,,
1554948012.26533,,,,
1554948012.26576,816.7399292,821.9780273,910.6226807,967.4359131
1554948012.26966,809.4871826,1061.318726,1035.128174,1041.978027
1554948012.27356,801.0256348,806.666687,785.7142944,902.5640869
1554948012.27746,805.0549316,510.915741,617.6923218,804.2490845
1554948012.28035,,,,
1554948012.28135,810.2930298,592.3076782,776.8497925,927.5457764
1554948012.28366,,,,
1554948012.28525,818.7545776,690.6226807,903.3699341,1055.27478
1554948012.28915,819.1575317,677.3259888,853.4066162,942.0512695
1554948012.29088,,,,
1554948012.29088,,,,
1554948012.29104,,,,
1554948012.29108,,,,
1554948012.29109,,,,
1554948012.29111,,,,
1554948012.29113,,,,
1554948012.29114,,,,
1554948012.29116,,,,
1554948012.29117,,,,
1554948012.29119,,,,
1554948012.29121,,,,
1554948012.29122,,,,
1554948012.29123,,,,
1554948012.29123,,,,
1554948012.29124,,,,
1554948012.29125,,,,
1554948012.29127,,,,
1554948012.29305,813.1135254,581.4285889,743.0036621,802.6373901
1554948012.29695,817.9487305,572.5640869,781.6849976,889.6703491
1554948012.29974,,,,
1554948012.30047,,,,
1554948012.30085,809.8901367,874.7619019,1019.010986,1042.783936
1554948012.30303,,,,
1554948012.30475,802.234436,940.4395752,992.4176025,995.2380981
1554948012.30865,809.8901367,646.300354,742.1978149,823.5897217
1554948012.31254,812.3076782,446.849823,665.2380981,832.8571167
1554948012.31644,823.5897217,448.4615479,781.2820435,997.2527466
1554948012.31913,,,,
1554948012.32034,806.2637329,700.6959839,954.9450684,1015.384644
1554948012.32240,,,,
1554948012.32424,795.7875366,670.0732422,827.2161255,868.3150024
1554948012.32814,820.7692261,318.7179565,611.6483765,816.3369751
1554948012.33204,825.6043701,430.3296814,792.1611938,954.1392212
1554948012.33562,,,,
1554948012.33594,821.1721802,777.2527466,1011.75824,1049.230713
1554948012.33852,,,,
1554948012.33984,817.5457764,720.4395752,869.1208496,923.9194336
1554948012.34177,,,,
1554948012.34374,801.0256348,269.5604248,548.7911987,813.5164795
1554948012.34763,795.7875366,26.99633789,526.2271118,908.6080322
1554948012.35153,805.4578857,434.7619019,902.967041,1026.666626
1554948012.35543,810.6959839,594.7252808,921.5018311,963.4066162
1554948012.35792,,,,
1554948012.35933,810.6959839,271.1721497,651.1355591,819.1575317
1554948012.36114,,,,
1554948012.36323,815.5311279,224.8351593,676.9230957,872.7472534
1554948012.36713,813.9194336,477.4725342,879.5970459,1039.560425
1554948012.37077,,,,
1554948012.37103,814.7252808,514.5421143,886.4468994,1009.340637
1554948012.37493,813.5164795,158.3516541,546.7765503,837.2893677
1554948012.37731,,,,
1554948012.37882,800.6226807,22.16117287,531.868103,822.7838745
1554948012.38051,,,,
1554948012.38272,797.8021851,331.2088013,951.7216187,979.5238037
1554948012.38662,800.6226807,589.0842285,1050.842529,1023.443237
1554948012.39052,809.0842285,330.4029236,761.1355591,871.1355591
1554948012.39224,,,,
1554948012.39224,,,,
1554948012.39240,,,,
1554948012.39243,,,,
1554948012.39244,,,,
1554948012.39246,,,,
1554948012.39248,,,,
1554948012.39250,,,,
1554948012.39251,,,,
1554948012.39253,,,,
1554948012.39254,,,,
1554948012.39256,,,,
1554948012.39257,,,,
1554948012.39258,,,,
1554948012.39259,,,,
1554948012.39259,,,,
1554948012.39260,,,,
1554948012.39263,,,,
1554948012.39442,811.9047852,89.04762268,613.6630249,801.8314819
1554948012.39670,,,,
1554948012.39832,809.0842285,343.699646,848.1685181,942.8571167
1554948012.39989,,,,
1554948012.40222,824.7985229,642.6740112,1027.875488,1046.007324
1554948012.40592,,,,
1554948012.40612,835.2747192,431.5384521,804.2490845,915.0549316
1554948012.41001,816.7399292,173.2600708,614.065918,787.3259888
1554948012.41391,814.7252808,269.1575012,727.2893677,896.1171875
1554948012.41609,,,,
1554948012.41781,824.7985229,576.9963379,956.9597168,1038.351685
1554948012.41926,,,,
1554948012.42171,828.0219727,558.4615479,892.0878906,963.0036621
1554948012.42561,821.5750732,290.915741,684.9816895,803.0402832
1554948012.42951,816.7399292,338.4615479,761.1355591,842.1245117
1554948012.43341,812.3076782,512.5274658,912.234436,1006.520142
1554948012.43549,,,,
1554948012.43731,819.1575317,561.6849976,923.1135254,988.7911987
1554948012.43863,,,,
1554948012.44106,,,,
1554948012.44121,810.6959839,510.1098938,824.3956299,823.5897217
1554948012.44510,818.7545776,406.5567627,750.6593628,809.4871826
1554948012.44900,831.2454224,534.2857056,907.399292,963.8095093
1554948012.45290,823.9926758,763.5531006,1041.575073,1022.234436
1554948012.45488,,,,
1554948012.45680,820.7692261,741.7948608,921.5018311,877.9853516
1554948012.45800,,,,
1554948012.46070,818.3516235,580.2197876,770,788.9377441
1554948012.46460,818.7545776,498.4248962,771.6116943,917.8754883
1554948012.46850,813.5164795,676.9230957,933.1868286,1024.249023
1554948012.47240,808.6813354,886.4468994,981.5384521,911.4285889
1554948012.47427,,,,
1554948012.47621,,,,
1554948012.47629,806.2637329,691.0256348,762.3442993,786.1171875
1554948012.47737,,,,
1554948012.48019,800.6226807,686.5933838,791.3552856,869.9267578
1554948012.48409,823.1868286,998.4615479,1009.340637,1010.146545
1554948012.48799,836.0805664,1093.150146,985.9707031,954.9450684
1554948012.49189,824.3956299,832.8571167,743.0036621,811.098877
1554948012.49359,,,,
1554948012.49359,,,,
1554948012.49367,,,,
1554948012.49375,,,,
1554948012.49378,,,,
1554948012.49380,,,,
1554948012.49381,,,,
1554948012.49383,,,,
1554948012.49385,,,,
1554948012.49386,,,,
1554948012.49388,,,,
1554948012.49390,,,,
1554948012.49391,,,,
1554948012.49393,,,,
1554948012.49393,,,,
1554948012.49394,,,,
1554948012.49395,,,,
1554948012.49396,,,,
1554948012.49398,,,,
1554948012.49579,803.4432373,492.3809509,601.9780273,815.934082
1554948012.49674,,,,
1554948012.49969,791.7582397,781.2820435,903.7728882,958.1685181
1554948012.50359,793.7728882,1093.150146,1046.410278,980.3296509
1554948012.50748,790.5494385,750.6593628,738.9743652,811.5018311
1554948012.51136,,,,
1554948012.51138,781.6849976,603.5897217,668.4615479,765.9707031
1554948012.51306,,,,
1554948012.51528,780.0732422,792.5640869,863.4798584,921.9047852
1554948012.51612,,,,
1554948012.51918,780.4761963,1168.095215,1101.20874,983.1502075
1554948012.52308,765.567749,1010.952393,891.2820435,842.5274658
1554948012.52698,757.9121094,393.2600708,533.0769043,738.9743652
1554948012.53088,759.9267578,650.3296509,846.1538696,850.5860596
1554948012.53245,,,,
1554948012.53478,753.8828125,1213.626343,1207.582397,988.7911987
1554948012.53549,,,,
1554948012.53868,761.5384521,1162.857178,1074.615356,897.7289429
1554948012.54257,782.0878906,815.1282349,814.3223267,754.6886597
1554948012.54647,789.7435913,736.1538696,848.9743652,828.8278198
1554948012.54651,,,,
1554948012.55037,772.8204956,1050.036621,1128.608032,991.6116943
1554948012.55184,,,,
1554948012.55427,776.8497925,1101.20874,1121.758301,960.9890137
1554948012.55486,,,,
1554948012.55817,783.2966919,824.7985229,880.8058472,793.3699341
1554948012.56207,790.9523926,620.5128174,788.131897,795.7875366
1554948012.56597,787.3259888,884.432251,1046.007324,963.4066162
1554948012.56987,777.2527466,1253.919434,1234.981689,996.8497925
1554948012.57124,,,,
1554948012.57376,785.7142944,1028.278442,970.6593628,844.9450684
1554948012.57423,,,,
1554948012.57766,787.3259888,784.5054932,824.3956299,788.131897
1554948012.58156,791.3552856,1018.608032,1036.739868,936.0073242
1554948012.58166,,,,
1554948012.58546,808.6813354,1034.322388,1037.545776,1025.054932
1554948012.58936,809.4871826,835.6776733,859.0476074,875.567749
1554948012.59063,,,,
1554948012.59326,803.8461304,848.5714111,821.5750732,761.1355591
1554948012.59360,,,,
1554948012.59494,,,,
1554948012.59494,,,,
1554948012.59510,,,,
1554948012.59513,,,,
1554948012.59515,,,,
1554948012.59517,,,,
1554948012.59519,,,,
1554948012.59520,,,,
1554948012.59521,,,,
1554948012.59523,,,,
1554948012.59525,,,,
1554948012.59526,,,,
1554948012.59528,,,,
1554948012.59528,,,,
1554948012.59529,,,,
1554948012.59530,,,,
1554948012.59531,,,,
1554948012.59533,,,,
1554948012.59716,803.8461304,958.9743652,910.6226807,882.4176025
1554948012.60106,805.0549316,1297.032959,1129.816895,1016.190491
1554948012.60495,805.4578857,1276.483521,1008.53479,934.7985229
1554948012.60885,807.4725342,898.131897,712.7838745,785.3113403
1554948012.61002,,,,
1554948012.61275,826.4102783,779.6703491,709.1575317,844.1392212
1554948012.61297,,,,
1554948012.61665,811.9047852,1003.699646,936.8131714,1002.893799
1554948012.61680,,,,
1554948012.62055,804.2490845,1239.816895,1041.575073,972.6740112
1554948012.62445,815.934082,1058.901123,819.9633789,828.0219727
1554948012.62835,803.8461304,947.2893677,763.1502075,828.8278198
1554948012.62941,,,,
1554948012.63225,797.399292,1203.553101,985.164856,991.2088013
1554948012.63234,,,,
1554948012.63615,813.5164795,1407.032959,1070.989014,1031.501831
1554948012.64004,808.2783813,1182.600708,823.5897217,870.3296509
1554948012.64394,805.0549316,794.1758423,589.0842285,802.234436
1554948012.64784,809.4871826,883.2234497,749.4505615,934.3956299
1554948012.64881,,,,
1554948012.65172,,,,
1554948012.65174,803.8461304,1278.095215,1005.714294,1036.739868
1554948012.65195,,,,
1554948012.65564,794.9816895,1112.893799,801.0256348,918.6813354
1554948012.65954,782.4908447,789.7435913,574.9816895,780.0732422
1554948012.66344,799.4139404,863.8828125,706.7399292,877.9853516
1554948012.66734,809.8901367,1188.241699,963.8095093,1023.040283
1554948012.66820,,,,
1554948012.67109,,,,
1554948012.67123,822.3809814,1277.692261,960.1831665,955.3479614
1554948012.67513,826.0073242,742.600708,581.8314819,794.5787354
1554948012.67903,820.366272,514.9450684,541.9414063,817.9487305
1554948012.68293,798.6080322,1036.337036,955.7509155,985.9707031
1554948012.68683,795.3846436,1302.67395,1050.842529,989.5970459
1554948012.68710,,,,
1554948012.68759,,,,
1554948012.69046,,,,
1554948012.69073,824.7985229,1022.63739,765.9707031,828.8278198
1554948012.69463,823.9926758,781.2820435,648.7179565,804.2490845
1554948012.69630,,,,
1554948012.69630,,,,
1554948012.69646,,,,
1554948012.69649,,,,
1554948012.69650,,,,
1554948012.69652,,,,
1554948012.69654,,,,
1554948012.69655,,,,
1554948012.69657,,,,
1554948012.69658,,,,
1554948012.69660,,,,
1554948012.69662,,,,
1554948012.69663,,,,
1554948012.69664,,,,
1554948012.69665,,,,
1554948012.69665,,,,
1554948012.69666,,,,
1554948012.69668,,,,
1554948012.69853,811.9047852,1011.355286,898.53479,963.4066162
1554948012.70242,817.9487305,1122.967041,961.7948608,1018.608032
1554948012.70632,822.3809814,647.9121094,614.4688721,858.6447144
1554948012.70698,,,,
1554948012.70983,,,,
1554948012.71022,799.0109863,505.2747192,569.3406372,761.5384521
1554948012.71412,800.2197876,896.5201416,867.9121094,906.9963379
1554948012.71802,809.0842285,1172.124512,1016.996338,1033.516479
1554948012.72192,809.0842285,1083.479858,865.4945068,921.5018311
1554948012.72225,,,,
1554948012.72582,812.7106323,726.0805664,613.2600708,776.0439453
1554948012.72638,,,,
1554948012.72920,,,,
1554948012.72972,802.234436,733.7362671,717.6190186,856.2271118
1554948012.73362,798.6080322,1019.41394,958.5714111,1015.384644
1554948012.73751,807.0695801,935.6043701,857.8388062,951.3186646
1554948012.74141,809.8901367,677.7289429,668.8644409,782.0878906
1554948012.74531,803.8461304,631.3919678,687.8021851,803.0402832
1554948012.74577,,,,
1554948012.74857,,,,
1554948012.74921,805.4578857,817.5457764,881.6116943,964.2124634
1554948012.75311,817.1428833,1041.978027,994.835144,971.46521
1554948012.75701,826.0073242,822.7838745,755.4945068,810.2930298
1554948012.75739,,,,
1554948012.76091,807.0695801,672.0878906,673.699646,777.2527466
1554948012.76481,795.3846436,635.8241577,732.9304199,933.5897217
1554948012.76516,,,,
1554948012.76795,,,,
1554948012.76870,803.8461304,730.5128174,836.8864746,991.2088013
1554948012.77260,800.6226807,886.8497925,867.1062012,860.2564087
1554948012.77650,803.0402832,696.2637329,702.7106323,778.0585938
1554948012.78040,810.6959839,747.4359131,803.0402832,892.8937988
1554948012.78430,812.3076782,1057.692261,1025.457886,1007.728943
1554948012.78456,,,,
1554948012.78732,,,,
1554948012.78820,817.1428833,1047.619019,930.366272,906.5933838
1554948012.79210,817.9487305,646.300354,625.7509155,771.2088013
1554948012.79254,,,,
1554948012.79600,815.5311279,483.9194031,608.8278198,832.4542236
1554948012.79765,,,,
1554948012.79765,,,,
1554948012.79781,,,,
1554948012.79784,,,,
1554948012.79786,,,,
1554948012.79787,,,,
1554948012.79789,,,,
1554948012.79791,,,,
1554948012.79792,,,,
1554948012.79794,,,,
1554948012.79796,,,,
1554948012.79797,,,,
1554948012.79798,,,,
1554948012.79799,,,,
1554948012.79800,,,,
1554948012.79801,,,,
1554948012.79801,,,,
1554948012.79804,,,,
1554948012.79989,814.7252808,770,873.9560547,979.9267578
1554948012.80379,814.3223267,890.8791504,903.3699341,942.8571167
1554948012.80395,,,,
1554948012.80669,,,,
1554948012.80769,817.5457764,626.9597168,675.3113403,778.8644409
1554948012.81159,801.4285889,510.5128174,666.8497925,779.6703491
1554948012.81549,801.8314819,780.4761963,922.7106323,938.8278198
1554948012.81939,815.5311279,1002.087891,1018.205139,967.032959
1554948012.82329,807.8754883,652.7472534,695.8607788,807.4725342
1554948012.82334,,,,
1554948012.82606,,,,
1554948012.82719,800.6226807,206.3003693,476.6666565,735.3479614
1554948012.82769,,,,
1554948012.83109,801.8314819,582.6373901,843.7362671,877.5823975
1554948012.83498,804.6520386,1048.424927,1106.849854,978.7179565
1554948012.83888,809.0842285,883.2234497,885.2380981,853.4066162
1554948012.84273,,,,
1554948012.84278,812.7106323,520.1831665,635.4212646,736.5567627
1554948012.84543,,,,
1554948012.84668,799.4139404,633.8095093,785.3113403,834.8717651
1554948012.85058,806.666687,1063.333374,1057.692261,971.0622559
1554948012.85448,824.7985229,825.2014771,818.3516235,894.1025391
1554948012.85838,815.934082,347.3260193,518.9743652,730.9157715
1554948012.86213,,,,
1554948012.86228,802.234436,616.4835205,791.7582397,794.5787354
1554948012.86284,,,,
1554948012.86480,,,,
1554948012.86617,796.9963379,1014.981689,1071.391968,975.4945068
1554948012.87007,802.6373901,1092.747192,1030.695923,950.9157715
1554948012.87397,818.3516235,769.5970459,733.333313,783.2966919
1554948012.87787,811.5018311,616.4835205,663.6264038,778.8644409
1554948012.88152,,,,
1554948012.88177,804.2490845,836.8864746,868.7179565,945.6776733
1554948012.88418,,,,
1554948012.88567,803.4432373,940.0366211,933.1868286,975.8974609
1554948012.88957,804.6520386,725.6776733,745.0183105,814.7252808
1554948012.89347,805.4578857,446.0439453,588.6813354,748.6447144
1554948012.89736,805.0549316,657.9853516,824.7985229,887.2527466
1554948012.89798,,,,
1554948012.89900,,,,
1554948012.89900,,,,
1554948012.89916,,,,
1554948012.89919,,,,
1554948012.89921,,,,
1554948012.89923,,,,
1554948012.89924,,,,
1554948012.89926,,,,
1554948012.89927,,,,
1554948012.89929,,,,
1554948012.89931,,,,
1554948012.89932,,,,
1554948012.89934,,,,
1554948012.89934,,,,
1554948012.89935,,,,
1554948012.89936,,,,
1554948012.89937,,,,
1554948012.89939,,,,
1554948012.90091,,,,
1554948012.90126,804.2490845,1087.106201,1090.329712,996.4468994
1554948012.90355,,,,
1554948012.90516,794.5787354,1043.186768,948.0952148,885.6410522
1554948012.90906,801.8314819,778.8644409,733.7362671,756.300354
1554948012.91296,810.6959839,640.6593628,714.3956299,839.7069702
1554948012.91686,813.1135254,681.7582397,833.2600708,963.4066162
1554948012.92030,,,,
1554948012.92076,810.2930298,935.2014771,969.8534546,886.8497925
1554948012.92292,,,,
1554948012.92466,814.7252808,838.4981689,812.7106323,751.46521
1554948012.92856,825.6043701,782.0878906,801.8314819,792.5640869
1554948012.93245,834.065918,1077.838867,1034.72522,948.901123
1554948012.93313,,,,
1554948012.93635,819.5604248,1126.593384,1008.937744,944.8717651
1554948012.93970,,,,
1554948012.94025,808.6813354,956.9597168,812.3076782,784.5054932
1554948012.94229,,,,
1554948012.94415,812.7106323,618.0952148,624.9450684,755.0915527
1554948012.94805,801.4285889,762.3442993,845.7509155,900.9523926
1554948012.95195,815.1282349,1208.388306,1115.714233,965.4212646
1554948012.95585,821.5750732,1057.289429,905.7875366,828.0219727
1554948012.95909,,,,
1554948012.95975,810.6959839,813.1135254,719.633728,741.3919678
1554948012.96166,,,,
1554948012.96364,810.2930298,938.8278198,851.7948608,865.0915527
1554948012.96754,817.5457764,1242.637329,1045.60437,977.9121094
1554948012.96828,,,,
1554948012.97144,828.0219727,1081.46521,864.2857056,875.164856
1554948012.97534,814.7252808,688.2051392,612.0512695,726.4835205
1554948012.97848,,,,
1554948012.97924,806.2637329,797.8021851,764.7619019,795.3846436
1554948012.98103,,,,
1554948012.98314,813.1135254,1114.102539,1009.743591,956.5567627
1554948012.98704,813.1135254,1183.406616,981.1355591,900.5494385
1554948012.99094,815.1282349,990.8058472,773.6264038,738.5714111
1554948012.99483,820.366272,882.0146484,743.8095093,764.7619019
1554948012.99788,,,,
1554948012.99873,821.5750732,1173.333374,1001.684998,923.1135254
1554948013.00036,,,,
1554948013.00036,,,,
1554948013.00041,,,,
1554948013.00051,,,,
1554948013.00055,,,,
1554948013.00056,,,,
1554948013.00058,,,,
1554948013.00060,,,,
1554948013.00061,,,,
1554948013.00063,,,,
1554948013.00064,,,,
1554948013.00066,,,,
1554948013.00068,,,,
1554948013.00069,,,,
1554948013.00070,,,,
1554948013.00070,,,,
1554948013.00071,,,,
1554948013.00072,,,,
1554948013.00074,,,,
1554948013.00263,819.1575317,1214.835205,986.7765503,936.8131714
1554948013.00343,,,,
1554948013.00653,834.4688721,791.7582397,668.8644409,768.3883057
1554948013.01043,831.6483765,782.0878906,719.633728,722.0512695
1554948013.01433,813.5164795,1073.406616,960.1831665,884.0292969
1554948013.01727,,,,
1554948013.01823,822.3809814,1313.150146,1079.853516,954.1392212
1554948013.01978,,,,
1554948013.02213,823.9926758,1207.985352,902.1611938,805.8607788
1554948013.02603,805.4578857,860.2564087,648.3150024,693.0402832
1554948013.02992,807.0695801,848.1685181,734.5421143,802.234436
1554948013.03382,813.1135254,956.1538696,855.4212646,914.6520386
1554948013.03666,,,,
1554948013.03772,805.0549316,855.4212646,753.0769043,794.9816895
1554948013.03857,,,,
1554948013.03915,,,,
1554948013.04162,782.0878906,807.8754883,689.0109863,646.7033081
1554948013.04552,783.2966919,862.2710571,752.6740112,718.4249268
1554948013.04942,799.4139404,1135.054932,965.8241577,875.164856
1554948013.05332,799.0109863,1200.329712,951.7216187,840.1098633
1554948013.05605,,,,
1554948013.05722,796.1904907,896.1171875,699.8901367,670.4761963
1554948013.05852,,,,
1554948013.06111,791.3552856,741.7948608,690.6226807,672.8937988
1554948013.06501,785.3113403,1019.010986,1000.476196,834.4688721
1554948013.06891,796.9963379,1303.076904,1155.201416,865.4945068
1554948013.07281,810.6959839,1059.706909,905.7875366,715.6043701
1554948013.07372,,,,
1554948013.07545,,,,
1554948013.07671,806.666687,773.6264038,769.5970459,655.567749
1554948013.07789,,,,
1554948013.08061,811.5018311,980.3296509,1007.728943,796.1904907
1554948013.08451,805.8607788,1226.117188,1158.827881,892.4908447
1554948013.08841,792.5640869,1126.996338,1010.549438,772.8204956
1554948013.09230,805.0549316,788.131897,752.6740112,663.6264038
1554948013.09484,,,,
1554948013.09620,815.934082,651.9414063,763.9560547,758.7179565
1554948013.09726,,,,
1554948013.10010,819.1575317,1163.662964,1155.201416,897.7289429
1554948013.10171,,,,
1554948013.10171,,,,
1554948013.10187,,,,
1554948013.10190,,,,
1554948013.10191,,,,
1554948013.10193,,,,
1554948013.10195,,,,
1554948013.10197,,,,
1554948013.10198,,,,
1554948013.10200,,,,
1554948013.10201,,,,
1554948013.10203,,,,
1554948013.10204,,,,
1554948013.10205,,,,
1554948013.10206,,,,
1554948013.10206,,,,
1554948013.10207,,,,
1554948013.10210,,,,
1554948013.10400,825.2014771,1357.875488,1154.39563,841.3186646
1554948013.10790,810.6959839,1007.325989,835.6776733,687.8021851
1554948013.10887,,,,
1554948013.11180,812.3076782,969.4505615,850.9890137,736.5567627
1554948013.11423,,,,
1554948013.11570,817.9487305,1284.945068,1088.717896,895.3113403
1554948013.11664,,,,
1554948013.11960,819.1575317,1477.545776,1117.728882,882.8204956
1554948013.12350,819.9633789,986.7765503,683.7728882,725.2747192
1554948013.12739,813.9194336,584.6520386,489.5604248,695.4578857
1554948013.13129,807.4725342,1097.179443,914.6520386,858.6447144
1554948013.13362,,,,
1554948013.13519,807.8754883,1533.956055,1137.472534,934.3956299
1554948013.13601,,,,
1554948013.13909,805.8607788,1342.161133,911.8314819,791.7582397
1554948013.14299,810.6959839,1039.157471,712.3809814,708.7545776
1554948013.14402,,,,
1554948013.14689,811.5018311,1131.025635,867.1062012,840.5128174
1554948013.15079,811.098877,1456.593384,1088.315063,938.0219727
1554948013.15302,,,,
1554948013.15469,825.6043701,1269.633667,878.3883057,813.1135254
1554948013.15538,,,,
1554948013.15858,832.4542236,1000.476196,693.8461304,689.8168335
1554948013.16248,822.7838745,1177.765625,878.3883057,794.1758423
1554948013.16638,803.0402832,1459.41394,1083.882813,941.6483765
1554948013.17028,800.2197876,1440.87915,994.0292969,882.8204956
1554948013.17241,,,,
1554948013.17418,809.8901367,1116.923096,725.6776733,726.8864746
1554948013.17475,,,,
1554948013.17808,817.9487305,1085.897461,773.2234497,760.732605
1554948013.17916,,,,
1554948013.18198,811.9047852,1291.794922,977.5091553,933.9926758
1554948013.18588,805.8607788,1205.970703,895.3113403,917.4725342
1554948013.18977,805.8607788,1064.13916,745.0183105,745.0183105
1554948013.19180,,,,
1554948013.19367,803.8461304,1049.230713,747.8388062,740.1831665
1554948013.19412,,,,
1554948013.19757,803.4432373,1284.542114,967.4359131,901.3552856
1554948013.20147,805.0549316,1504.13916,1089.523804,965.0183105
1554948013.20306,,,,
1554948013.20306,,,,
1554948013.20322,,,,
1554948013.20325,,,,
1554948013.20327,,,,
1554948013.20328,,,,
1554948013.20330,,,,
1554948013.20332,,,,
1554948013.20333,,,,
1554948013.20335,,,,
1554948013.20337,,,,
1554948013.20338,,,,
1554948013.20340,,,,
1554948013.20340,,,,
1554948013.20341,,,,
1554948013.20342,,,,
1554948013.20343,,,,
1554948013.20345,,,,
1554948013.20537,802.6373901,1269.633667,865.8974609,828.4249268
1554948013.20927,801.4285889,1014.578735,701.9047852,738.5714111
1554948013.21119,,,,
1554948013.21317,803.4432373,1037.142822,799.0109863,855.8241577
1554948013.21349,,,,
1554948013.21431,,,,
1554948013.21707,815.5311279,1228.937744,971.868103,969.0476074
1554948013.22097,812.3076782,1222.087891,914.6520386,865.4945068
1554948013.22486,804.6520386,958.5714111,711.1721802,734.5421143
1554948013.22876,809.8901367,1021.831482,816.3369751,824.7985229
1554948013.23059,,,,
1554948013.23266,815.5311279,1334.505493,1054.468872,977.9121094
1554948013.23287,,,,
1554948013.23656,825.6043701,1368.754639,1002.893799,930.366272
1554948013.24046,820.366272,1092.747192,757.9121094,774.432251
1554948013.24436,805.4578857,688.2051392,575.3846436,788.53479
1554948013.24826,794.1758423,871.1355591,822.7838745,926.7399292
1554948013.24946,,,,
1554948013.24998,,,,
1554948013.25216,796.5933838,1320.805908,1068.571411,945.2747192
1554948013.25224,,,,
1554948013.25605,809.4871826,1124.578735,834.065918,812.7106323
1554948013.25995,815.5311279,826.4102783,655.567749,768.3883057
1554948013.26385,817.1428833,813.9194336,750.2564087,909.4139404
1554948013.26775,804.6520386,1068.168457,959.3773193,979.1208496
1554948013.26937,,,,
1554948013.27161,,,,
1554948013.27165,820.7692261,1012.967041,835.6776733,855.4212646
1554948013.27555,827.6190186,469.0109863,476.6666565,757.1062012
1554948013.27945,802.234436,649.1208496,718.4249268,857.032959
1554948013.28335,815.5311279,1243.040283,1097.985352,1011.355286
1554948013.28461,,,,
1554948013.28724,820.7692261,1210,956.5567627,936.8131714
1554948013.28877,,,,
1554948013.29098,,,,
1554948013.29114,806.666687,865.8974609,674.5054932,787.3259888
1554948013.29504,789.7435913,786.9230957,687.8021851,847.3626099
1554948013.29894,785.7142944,1094.761963,943.2600708,1000.476196
1554948013.30284,806.2637329,1090.732544,884.835144,970.2564087
1554948013.30442,,,,
1554948013.30442,,,,
1554948013.30457,,,,
1554948013.30460,,,,
1554948013.30462,,,,
1554948013.30464,,,,
1554948013.30466,,,,
1554948013.30467,,,,
1554948013.30468,,,,
1554948013.30470,,,,
1554948013.30472,,,,
1554948013.30474,,,,
1554948013.30475,,,,
1554948013.30476,,,,
1554948013.30476,,,,
1554948013.30477,,,,
1554948013.30478,,,,
1554948013.30480,,,,
1554948013.30674,809.4871826,797.399292,649.1208496,804.6520386
1554948013.30816,,,,
1554948013.31035,,,,
1554948013.31064,805.8607788,665.6410522,623.333313,808.6813354
1554948013.31454,801.4285889,942.8571167,886.4468994,974.6886597
1554948013.31844,807.8754883,1192.271118,1004.505493,1007.728943
1554948013.31975,,,,
1554948013.32233,819.1575317,896.1171875,719.2307739,850.9890137
1554948013.32623,813.1135254,686.9963379,597.1428833,784.1025391
1554948013.32755,,,,
1554948013.32972,,,,
1554948013.33013,801.8314819,912.6373901,807.8754883,919.8901367
1554948013.33403,812.3076782,935.2014771,836.4835205,1008.131897
1554948013.33793,819.9633789,703.5164795,659.1941528,870.3296509
1554948013.34183,808.2783813,668.0585938,630.1831665,763.5531006
1554948013.34573,796.9963379,774.0292969,758.3150024,875.567749
1554948013.34694,,,,
1554948013.34909,,,,
1554948013.34963,802.6373901,1094.761963,986.3735962,1006.923096
1554948013.35352,817.9487305,1068.168457,872.3442993,931.5750732
1554948013.35490,,,,
1554948013.35742,808.6813354,674.1025391,580.6226807,781.2820435
1554948013.36132,796.9963379,597.1428833,610.0366211,833.6630249
1554948013.36522,805.0549316,830.4395752,842.9304199,994.835144
1554948013.36634,,,,
1554948013.36847,,,,
1554948013.36912,809.4871826,1077.032959,967.4359131,973.8828125
1554948013.37302,824.7985229,904.9816895,754.6886597,816.3369751
1554948013.37692,829.633728,639.8534546,618.901123,804.2490845
1554948013.38082,817.1428833,844.5421143,854.2124634,959.3773193
1554948013.38471,816.3369751,1178.168457,1053.260132,1006.923096
1554948013.38573,,,,
1554948013.38784,,,,
1554948013.38861,811.9047852,1062.93042,874.7619019,858.6447144
1554948013.39005,,,,
1554948013.39251,806.666687,623.7362671,599.1575317,778.0585938
1554948013.39641,808.2783813,710.7692261,765.9707031,897.7289429
1554948013.40031,809.8901367,1131.025635,1027.06958,1002.893799
1554948013.40421,805.0549316,991.2088013,840.9157715,891.2820435
1554948013.40512,,,,
1554948013.40577,,,,
1554948013.40577,,,,
1554948013.40593,,,,
1554948013.40596,,,,
1554948013.40597,,,,
1554948013.40599,,,,
1554948013.40601,,,,
1554948013.40602,,,,
1554948013.40604,,,,
1554948013.40605,,,,
1554948013.40607,,,,
1554948013.40609,,,,
1554948013.40610,,,,
1554948013.40611,,,,
1554948013.40612,,,,
1554948013.40612,,,,
1554948013.40613,,,,
1554948013.40615,,,,
1554948013.40721,,,,
1554948013.40811,797.8021851,746.6300659,653.5531006,761.1355591
1554948013.41201,804.6520386,813.1135254,747.8388062,856.2271118
1554948013.41591,820.366272,1074.212402,965.4212646,1002.087891
1554948013.41980,825.6043701,1137.06958,945.6776733,942.8571167
1554948013.42370,817.1428833,592.3076782,550,785.3113403
1554948013.42451,,,,
1554948013.42520,,,,
1554948013.42658,,,,
1554948013.42760,800.6226807,488.7545776,576.5933838,805.8607788
1554948013.43150,805.0549316,1080.25647,1003.699646,979.9267578
1554948013.43540,813.5164795,1171.721558,964.2124634,993.6264038
1554948013.43930,810.6959839,860.6593628,681.7582397,829.2307739
1554948013.44320,805.4578857,791.7582397,683.7728882,795.7875366
1554948013.44391,,,,
1554948013.44595,,,,
1554948013.44710,799.0109863,1053.662964,929.1575317,947.6923218
1554948013.45099,813.9194336,1182.600708,990.8058472,1006.117188
1554948013.45489,829.633728,755.8974609,667.2527466,854.6153564
1554948013.45879,828.4249268,581.8314819,599.9633789,764.7619019
1554948013.46035,,,,
1554948013.46269,816.7399292,945.2747192,895.3113403,898.53479
1554948013.46330,,,,
1554948013.46532,,,,
1554948013.46659,807.0695801,1284.542114,1102.820557,1019.010986
1554948013.47049,819.9633789,1241.428589,967.8388062,932.3809814
1554948013.47439,830.8424683,876.3735962,682.1611938,794.1758423
1554948013.47829,807.4725342,850.5860596,749.4505615,842.9304199
1554948013.48218,792.967041,1076.630005,963.8095093,978.3150024
1554948013.48269,,,,
1554948013.48470,,,,
1554948013.48608,793.3699341,1122.564087,924.7252808,923.5164795
1554948013.48998,783.2966919,862.6740112,661.2088013,758.3150024
1554948013.49388,774.0292969,688.2051392,598.3516235,768.7911987
1554948013.49549,,,,
1554948013.49778,765.567749,839.3040161,797.8021851,931.1721802
1554948013.50168,767.5823975,1056.483521,933.9926758,947.6923218
1554948013.50209,,,,
1554948013.50407,,,,
1554948013.50558,763.1502075,897.7289429,759.1208496,799.8168335
1554948013.50712,,,,
1554948013.50712,,,,
1554948013.50728,,,,
1554948013.50731,,,,
1554948013.50733,,,,
1554948013.50734,,,,
1554948013.50736,,,,
1554948013.50738,,,,
1554948013.50739,,,,
1554948013.50741,,,,
1554948013.50743,,,,
1554948013.50744,,,,
1554948013.50745,,,,
1554948013.50746,,,,
1554948013.50747,,,,
1554948013.50748,,,,
1554948013.50748,,,,
1554948013.50751,,,,
1554948013.50948,755.0915527,673.2966919,616.8864746,755.4945068
1554948013.51338,757.5091553,690.2197876,716.8131714,887.2527466
1554948013.51727,763.9560547,970.6593628,932.3809814,965.0183105
1554948013.52117,778.4615479,969.0476074,847.3626099,847.3626099
1554948013.52148,,,,
1554948013.52344,,,,
1554948013.52507,777.6557007,656.7765503,636.2271118,738.9743652
1554948013.52897,782.0878906,749.0476074,794.5787354,850.9890137
1554948013.53064,,,,
1554948013.53287,787.7289429,1058.901123,1031.904785,980.3296509
1554948013.53677,804.2490845,1031.098877,924.7252808,891.2820435
1554948013.54067,803.8461304,708.7545776,659.5970459,757.5091553
1554948013.54087,,,,
1554948013.54281,,,,
1554948013.54457,794.9816895,385.2014771,542.7472534,818.3516235
1554948013.54846,806.666687,579.0109863,801.0256348,954.1392212
1554948013.55236,803.4432373,948.4981689,1002.087891,930.7692261
1554948013.55626,809.8901367,805.4578857,803.4432373,791.7582397
1554948013.56016,804.6520386,767.5823975,786.1171875,795.7875366
1554948013.56026,,,,
1554948013.56218,,,,
1554948013.56406,805.4578857,1083.076904,1024.249023,956.9597168
1554948013.56579,,,,
1554948013.56796,815.934082,1321.20874,1103.626343,993.2234497
1554948013.57186,801.4285889,949.3040161,751.868103,834.065918
1554948013.57576,793.3699341,672.4908447,609.2307739,759.5238037
1554948013.57965,788.131897,1017.802185,915.4578857,904.9816895
1554948013.57966,,,,
1554948013.58155,,,,
1554948013.58355,777.2527466,1313.150146,1074.615356,1004.505493
1554948013.58745,784.9084473,1198.315063,890.8791504,879.1941528
1554948013.59135,793.3699341,783.699646,600.366272,761.5384521
1554948013.59525,792.5640869,714.3956299,653.9560547,853.8095093
1554948013.59905,,,,
1554948013.59915,770.8058472,1118.53479,948.0952148,973.0769043
1554948013.60093,,,,
1554948013.60094,,,,
1554948013.60305,762.7472534,893.699646,723.6630249,877.5823975
1554948013.60695,757.5091553,342.0879211,342.0879211,701.5018311
1554948013.60848,,,,
1554948013.60848,,,,
1554948013.60863,,,,
1554948013.60866,,,,
1554948013.60868,,,,
1554948013.60870,,,,
1554948013.60871,,,,
1554948013.60873,,,,
1554948013.60874,,,,
1554948013.60876,,,,
1554948013.60878,,,,
1554948013.60879,,,,
1554948013.60881,,,,
1554948013.60881,,,,
1554948013.60882,,,,
1554948013.60883,,,,
1554948013.60884,,,,
1554948013.60886,,,,
1554948013.61085,725.2747192,261.9047546,313.4798584,726.0805664
1554948013.61474,701.9047852,355.7875366,348.9377441,869.9267578
1554948013.61844,,,,
1554948013.61864,685.7875366,232.4908447,199.4505463,823.9926758
1554948013.62030,,,,
1554948013.62254,668.4615479,8.058608055,11.28205109,638.6447144
1554948013.62644,624.9450684,29.41391945,44.32234573,603.1868286
1554948013.63034,592.7106323,27.80219841,311.8681335,734.9450684
1554948013.63424,597.9487305,28.20512772,613.2600708,773.2234497
1554948013.63608,,,,
1554948013.63783,,,,
1554948013.63814,588.6813354,32.23443222,635.4212646,622.9304199
1554948013.63967,,,,
1554948013.64204,581.8314819,24.98168564,647.5091553,553.2234497
1554948013.64593,583.4432373,263.9194031,939.2307739,679.7435913
1554948013.64983,592.3076782,682.1611938,1159.230713,779.6703491
1554948013.65373,592.7106323,758.3150024,1031.501831,678.53479
1554948013.65723,,,,
1554948013.65763,585.8607788,556.8497925,805.8607788,559.267395
1554948013.65904,,,,
1554948013.66153,605.2014771,423.0769348,782.8937988,649.5238037
1554948013.66543,611.6483765,667.6557007,1042.783936,793.3699341
1554948013.66933,624.1392212,937.6190186,1161.245361,750.6593628
1554948013.67123,,,,
1554948013.67323,647.9121094,783.699646,952.5274658,628.5714111
1554948013.67662,,,,
1554948013.67713,657.9853516,879.5970459,998.8644409,674.5054932
1554948013.67841,,,,
1554948013.68102,677.3259888,1315.970703,1253.113525,853.8095093
1554948013.68492,688.2051392,1530.732544,1263.186768,872.7472534
1554948013.68882,702.3076782,1480.366333,1081.868164,722.0512695
1554948013.69272,721.2454224,1285.750977,888.0585938,708.7545776
1554948013.69601,,,,
1554948013.69662,731.3186646,1386.080566,1062.124512,869.1208496
1554948013.69778,,,,
1554948013.70052,757.9121094,21.35531044,1403.80957,942.0512695
1554948013.70442,779.267395,1646.776611,1232.967041,824.7985229
1554948013.70638,,,,
1554948013.70832,779.267395,1643.956055,1025.054932,753.4798584
1554948013.70983,,,,
1554948013.70983,,,,
1554948013.70998,,,,
1554948013.71002,,,,
1554948013.71003,,,,
1554948013.71005,,,,
1554948013.71007,,,,
1554948013.71008,,,,
1554948013.71010,,,,
1554948013.71011,,,,
1554948013.71013,,,,
1554948013.71015,,,,
1554948013.71016,,,,
1554948013.71017,,,,
1554948013.71018,,,,
1554948013.71018,,,,
1554948013.71019,,,,
1554948013.71021,,,,
1554948013.71221,807.4725342,0.805860817,1149.560425,889.267395
1554948013.71540,,,,
1554948013.71611,832.0512695,1650,1371.172119,1011.75824
1554948013.71716,,,,
1554948013.72001,857.4359131,1650,1255.531128,933.5897217
1554948013.72391,851.3919678,1650,1020.622681,816.7399292
1554948013.72781,831.2454224,1650,1143.516479,889.267395
1554948013.73171,848.5714111,1650,1353.443237,1041.172119
1554948013.73480,,,,
1554948013.73561,855.8241577,1650,1390.915771,993.2234497
1554948013.73653,,,,
1554948013.73951,852.1978149,1650,1242.234375,841.7216187
1554948013.74153,,,,
1554948013.74340,863.0769043,1650,1258.351685,869.5238037
1554948013.74730,887.2527466,1650,1563.772949,1043.992676
1554948013.75120,900.5494385,1650,1562.967041,1065.348022
1554948013.75419,,,,
1554948013.75510,899.7435913,1650,1191.46521,890.0732422
1554948013.75590,,,,
1554948013.75900,899.7435913,1650,1194.285767,835.2747192
1554948013.76290,889.267395,1650,1468.681274,996.0439453
1554948013.76680,887.2527466,1650,1520.659302,1068.974365
1554948013.77070,917.8754883,1650,1271.648315,937.6190186
1554948013.77358,,,,
1554948013.77459,913.4432373,1650,1024.651978,837.2893677
1554948013.77527,,,,
1554948013.77667,,,,
1554948013.77849,885.6410522,1650,1127.802246,931.5750732
1554948013.78239,897.7289429,1650,1268.021973,1040.366333
1554948013.78629,904.5787354,1650,1095.567749,939.633728
1554948013.79019,890.8791504,1650,985.567749,803.0402832
1554948013.79298,,,,
1554948013.79409,883.2234497,1650,1086.703247,873.5531006
1554948013.79464,,,,
1554948013.79799,886.8497925,1650,1302.67395,1027.06958
1554948013.80189,894.5054932,1650,1266.410278,993.2234497
1554948013.80579,891.2820435,1650,965.8241577,829.2307739
1554948013.80968,887.2527466,1650,861.0622559,817.5457764
1554948013.81118,,,,
1554948013.81118,,,,
1554948013.81134,,,,
1554948013.81137,,,,
1554948013.81138,,,,
1554948013.81140,,,,
1554948013.81142,,,,
1554948013.81144,,,,
1554948013.81145,,,,
1554948013.81147,,,,
1554948013.81148,,,,
1554948013.81150,,,,
1554948013.81151,,,,
1554948013.81152,,,,
1554948013.81153,,,,
1554948013.81154,,,,
1554948013.81154,,,,
1554948013.81157,,,,
1554948013.81182,,,,
1554948013.81237,,,,
1554948013.81358,880.8058472,1650,1020.622681,960.9890137
1554948013.81401,,,,
1554948013.81748,864.6886597,1650,1169.706909,983.5531006
1554948013.82138,856.2271118,1650,946.8864746,834.065918
1554948013.82528,866.7033081,1650,690.2197876,776.0439453
1554948013.82918,864.2857056,1650,883.6264038,903.3699341
1554948013.83176,,,,
1554948013.83308,862.2710571,1650,1090.732544,984.3589478
1554948013.83339,,,,
1554948013.83698,886.8497925,1650,929.5604248,859.0476074
1554948013.84087,886.0439453,1650,608.0219727,744.6153564
1554948013.84477,868.3150024,1650,566.9230957,837.2893677
1554948013.84697,,,,
1554948013.84867,871.1355591,1650,966.6300659,953.7362671
1554948013.85115,,,,
1554948013.85257,860.2564087,1650,1030.695923,880.4029541
1554948013.85276,,,,
1554948013.85647,859.8534546,1650,717.6190186,736.5567627
1554948013.86037,863.4798584,1650,700.2930298,770
1554948013.86427,846.5567627,1650,940.0366211,917.8754883
1554948013.86817,853.0036621,1650,944.8717651,898.131897
1554948013.87055,,,,
1554948013.87206,857.4359131,1650,503.6629944,727.6923218
1554948013.87213,,,,
1554948013.87596,855.0183105,1650,379.1575012,704.3223267
1554948013.87986,852.600708,1650,779.6703491,865.4945068
1554948013.88212,,,,
1554948013.88376,857.032959,1650,873.1502075,912.6373901
1554948013.88766,866.300354,1650,622.1245117,764.7619019
1554948013.88994,,,,
1554948013.89150,,,,
1554948013.89156,866.7033081,1650,424.6886597,689.8168335
1554948013.89546,859.4505615,1650,577.8021851,817.5457764
1554948013.89936,861.46521,1650,748.6447144,918.6813354
1554948013.90326,890.0732422,1650,579.4139404,813.5164795
1554948013.90715,866.7033081,1650,409.3772888,686.5933838
1554948013.90933,,,,
1554948013.91087,,,,
1554948013.91105,827.6190186,1650,520.5860596,766.3735962
1554948013.91254,,,,
1554948013.91254,,,,
1554948013.91269,,,,
1554948013.91272,,,,
1554948013.91274,,,,
1554948013.91275,,,,
1554948013.91277,,,,
1554948013.91279,,,,
1554948013.91280,,,,
1554948013.91282,,,,
1554948013.91284,,,,
1554948013.91285,,,,
1554948013.91287,,,,
1554948013.91287,,,,
1554948013.91288,,,,
1554948013.91289,,,,
1554948013.91290,,,,
1554948013.91292,,,,
1554948013.91495,837.2893677,1648.79126,736.9597168,908.2051392
1554948013.91726,,,,
1554948013.91885,833.2600708,1.611721635,669.6703491,841.7216187
1554948013.92275,817.1428833,1644.761963,433.9560547,677.7289429
1554948013.92665,805.8607788,1635.091553,479.8901062,699.8901367
1554948013.92872,,,,
1554948013.93024,,,,
1554948013.93055,821.9780273,2.014652014,754.2857056,863.8828125
1554948013.93445,832.8571167,1640.329712,660,853.0036621
1554948013.93834,803.4432373,1634.285767,543.1502075,677.7289429
1554948013.94224,792.5640869,1.208791256,641.46521,669.6703491
1554948013.94614,814.3223267,1649.597046,818.3516235,836.0805664
1554948013.94812,,,,
1554948013.94962,,,,
1554948013.95004,824.7985229,1647.582397,959.3773193,893.2966919
1554948013.95241,,,,
1554948013.95394,813.5164795,3.626373529,782.0878906,753.0769043
1554948013.95784,818.7545776,1629.853516,566.9230957,664.0292969
1554948013.96174,823.5897217,1590.366333,603.1868286,785.7142944
1554948013.96564,812.3076782,1634.285767,783.2966919,894.5054932
1554948013.96751,,,,
1554948013.96899,,,,
1554948013.96953,809.0842285,6.04395628,735.3479614,792.1611938
1554948013.97343,816.7399292,1483.992676,523.8095093,664.835144
1554948013.97733,814.3223267,1459.816895,580.2197876,735.7509155
1554948013.98123,819.5604248,1642.747192,843.7362671,888.8644409
1554948013.98513,818.7545776,1627.838867,798.6080322,852.1978149
1554948013.98690,,,,
1554948013.98756,,,,
1554948013.98836,,,,
1554948013.98903,798.2051392,1389.304077,491.9780273,695.4578857
1554948013.99293,809.4871826,1047.216064,354.9816895,712.7838745
1554948013.99683,824.7985229,1255.531128,620.1098633,862.2710571
1554948014.00073,824.7985229,1596.007324,830.0366211,888.8644409
1554948014.00462,820.366272,1335.714233,580.2197876,744.6153564
1554948014.00630,,,,
1554948014.00773,,,,
1554948014.00852,825.2014771,1050.439575,415.4212341,693.8461304
1554948014.01242,826.4102783,1099.597046,556.8497925,835.2747192
1554948014.01389,,,,
1554948014.01389,,,,
1554948014.01404,,,,
1554948014.01407,,,,
1554948014.01409,,,,
1554948014.01411,,,,
1554948014.01413,,,,
1554948014.01414,,,,
1554948014.01415,,,,
1554948014.01417,,,,
1554948014.01419,,,,
1554948014.01421,,,,
1554948014.01422,,,,
1554948014.01423,,,,
1554948014.01423,,,,
1554948014.01424,,,,
1554948014.01425,,,,
1554948014.01427,,,,
1554948014.01632,820.366272,1377.216064,769.5970459,909.8168335
1554948014.02022,816.3369751,1210.402954,581.0256348,793.7728882
1554948014.02271,,,,
1554948014.02412,801.0256348,664.0292969,224.8351593,682.967041
1554948014.02569,,,,
1554948014.02710,,,,
1554948014.02802,775.2380981,891.6849976,483.9194031,778.0585938
1554948014.03192,799.0109863,1457.802246,869.9267578,933.1868286
1554948014.03581,815.1282349,1382.454224,722.8571167,852.1978149
1554948014.03971,804.6520386,975.0915527,422.2710571,695.0549316
1554948014.04361,813.1135254,972.6740112,518.5714111,762.7472534
1554948014.04508,,,,
1554948014.04647,,,,
1554948014.04751,816.7399292,1334.102539,821.5750732,933.5897217
1554948014.05141,817.9487305,1276.483521,732.1245117,909.8168335
1554948014.05531,815.1282349,931.5750732,460.9523926,732.5274658
1554948014.05785,,,,
1554948014.05921,816.3369751,799.4139404,445.6410217,732.5274658
1554948014.06311,811.9047852,1080.25647,738.1685181,901.3552856
1554948014.06447,,,,
1554948014.06584,,,,
1554948014.06700,796.5933838,1417.106201,933.5897217,936.4102783
1554948014.07090,783.699646,1271.648315,740.1831665,788.53479
1554948014.07480,774.835144,1070.183105,606.8131714,730.1098633
1554948014.07870,782.8937988,1264.798584,801.0256348,870.3296509
1554948014.08260,781.6849976,1368.754639,886.4468994,958.9743652
1554948014.08387,,,,
1554948014.08522,,,,
1554948014.08650,776.4468994,1229.340698,757.5091553,831.2454224
1554948014.09040,780.4761963,1209.194092,730.9157715,731.7216187
1554948014.09300,,,,
1554948014.09430,783.2966919,1250.293091,807.0695801,844.5421143
1554948014.09820,791.7582397,1517.435913,1026.666626,980.732605
1554948014.10209,807.8754883,1518.644653,969.4505615,911.0256348
1554948014.10326,,,,
1554948014.10459,,,,
